"Latest: Time (s)","Latest: Magnetic Field (mT)"
0,-0.629890661701
0.005,-0.796711182891
0.01,-0.951229305763
0.015,-1.06933232961
0.02,-1.13847180816
0.025,-1.16283055683
0.03,-1.12616940984
0.035,-1.04079076552
0.04,-0.914568158776
0.045,-0.751930453014
0.05,-0.568870766045
0.055,-0.397867429427
0.06,-0.239166491127
0.065,-0.121309515242
0.07,-0.0317480554877
0.075,0.0292718401688
0.08,0.0617501717279
0.085,0.0698697546177
0.09,0.0496938213764
0.095,0.00884985896118
0.1,-0.0602896195851
0.105,-0.157970662229
0.11,-0.280010453542
0.115,-0.434528576414
0.12,-0.609468680494
0.125,-0.776289201684
0.13,-0.931053372522
0.135,-1.04891034841
0.14,-1.12616940984
0.145,-1.14240857562
0.15,-1.10993024406
0.155,-1.02455159974
0.16,-0.894392225535
0.165,-0.731508471807
0.17,-0.556568367727
0.175,-0.385811079075
0.18,-0.243349306555
0.185,-0.133611913559
0.19,-0.0440504538055
0.195,0.00491309149947
0.2,0.0332086076305
0.205,0.0373914230586
0.21,0.021152257279
0.215,-0.0317480554877
0.22,-0.105070349462
0.225,-0.210870974995
0.23,-0.349149932088
0.235,-0.50366805496
0.24,-0.67860815904
0.245,-0.84542868023
0.25,-0.975588054433
0.255,-1.06933232961
0.26,-1.11804982695
0.265,-1.10993024406
0.27,-1.04891034841
0.275,-0.947292538302
0.28,-0.809013581209
0.285,-0.638010244591
0.29,-0.475372538829
0.295,-0.324791183419
0.3,-0.194631809216
0.305,-0.0969507665723
0.31,-0.0359308709158
0.315,0.00884985896118
0.32,0.021152257279
0.325,0.0130326743893
0.33,-0.0236284725979
0.335,-0.0888311836825
0.34,-0.174209828008
0.345,-0.296249619321
0.35,-0.446830974732
0.355,-0.613651495922
0.36,-0.784408784573
0.365,-0.943109722873
0.37,-1.06121274672
0.375,-1.14240857562
0.38,-1.15889378937
0.385,-1.13428899273
0.39,-1.0570299313
0.395,-0.934990139984
0.4,-0.764232851332
0.405,-0.589292747252
0.41,-0.414352643173
0.415,-0.259588472334
0.42,-0.133611913559
0.425,-0.0398676383775
0.43,0.021152257279
0.435,0.0578134042662
0.44,0.0698697546177
0.445,0.0578134042662
0.45,0.016969441851
0.455,-0.0479872212672
0.46,-0.145668263911
0.465,-0.271890870652
0.47,-0.422472226062
0.475,-0.593229514714
0.48,-0.764232851332
0.485,-0.918750974204
0.49,-1.04497358095
0.495,-1.12223264238
0.5,-1.14659139105
0.505,-1.11804982695
0.51,-1.03685399806
0.515,-0.906448575886
0.52,-0.743810870124
0.525,-0.568870766045
0.53,-0.405987012316
0.535,-0.259588472334
0.54,-0.145668263911
0.545,-0.0521700366953
0.55,0.00491309149947
0.555,0.0332086076305
0.56,0.0373914230586
0.565,0.0250890247407
0.57,-0.0236284725979
0.575,-0.0927679511442
0.58,-0.194631809216
0.585,-0.32872795088
0.59,-0.483492121719
0.595,-0.654249410371
0.6,-0.825252746989
0.605,-0.959348888653
0.61,-1.06514951419
0.615,-1.11411305949
0.62,-1.10993024406
0.625,-1.05309316384
0.63,-0.955412121191
0.635,-0.817133164099
0.64,-0.650312642909
0.645,-0.491611704609
0.65,-0.33684753377
0.655,-0.206688159567
0.66,-0.109007116924
0.665,-0.0398676383775
0.67,0.00491309149947
0.675,0.021152257279
0.68,0.016969441851
0.685,-0.0113260742801
0.69,-0.0723459699366
0.695,-0.157970662229
0.7,-0.275827638114
0.705,-0.414352643173
0.71,-0.576990348934
0.715,-0.751930453014
0.72,-0.910631391314
0.725,-1.04079076552
0.73,-1.12616940984
0.735,-1.15889378937
0.74,-1.14240857562
0.745,-1.08138867997
0.75,-0.959348888653
0.755,-0.800647950353
0.76,-0.621771078811
0.765,-0.446830974732
0.77,-0.288130036432
0.775,-0.157970662229
0.78,-0.0521700366953
0.785,0.016969441851
0.79,0.0536305888381
0.795,0.0698697546177
0.8,0.0617501717279
0.805,0.0250890247407
0.81,-0.0317480554877
0.815,-0.121309515242
0.82,-0.231046908237
0.825,-0.381628263647
0.83,-0.548448784837
0.835,-0.719452121455
0.84,-0.878153059755
0.845,-1.01224920142
0.85,-1.10181066117
0.855,-1.14659139105
0.86,-1.13035222527
0.865,-1.06514951419
0.87,-0.951229305763
0.875,-0.796711182891
0.88,-0.625707846273
0.885,-0.450767742193
0.89,-0.304369202211
0.895,-0.17002701258
0.9,-0.0765287853646
0.905,-0.00738930681837
0.91,0.0292718401688
0.915,0.0415742384866
0.92,0.0292718401688
0.925,-0.00738930681837
0.93,-0.0723459699366
0.935,-0.166090245119
0.94,-0.288130036432
0.945,-0.438711391842
0.95,-0.605531913032
0.955,-0.772352434222
0.96,-0.922933789632
0.965,-1.03267118263
0.97,-1.10181066117
0.975,-1.11411305949
0.98,-1.08138867997
0.985,-0.99601003564
0.99,-0.870033476866
0.995,-0.715269306027
1,-0.548448784837
1.005,-0.385811079075
1.01,-0.251468889444
1.015,-0.141731496449
1.02,-0.0602896195851
1.025,-0.0032064913903
1.03,0.021152257279
1.035,0.016969441851
1.04,0.000730276071408
1.045,-0.0521700366953
1.05,-0.129429098131
1.055,-0.239166491127
1.06,-0.369571913296
1.065,-0.528272851596
1.07,-0.703212955676
1.075,-0.870033476866
1.08,-1.00831243396
1.085,-1.1059934766
1.09,-1.15889378937
1.095,-1.15471097394
1.1,-1.10181066117
1.105,-1.00019285107
1.11,-0.857731078548
1.115,-0.682790974468
1.12,-0.499731287498
1.125,-0.33684753377
1.13,-0.194631809216
1.135,-0.0846483682544
1.14,-0.0032064913903
1.145,0.0455110059484
1.15,0.065932987156
1.155,0.0698697546177
1.16,0.0415742384866
1.165,-0.00738930681837
1.17,-0.0927679511442
1.175,-0.198568576678
1.18,-0.341030349198
1.185,-0.499731287498
1.19,-0.67860815904
1.195,-0.84542868023
1.2,-0.98789045275
1.205,-1.08138867997
1.21,-1.14240857562
1.215,-1.14240857562
1.22,-1.08950826286
1.225,-0.983953685289
1.23,-0.83730909734
1.235,-0.67048857615
1.24,-0.491611704609
1.245,-0.33684753377
1.25,-0.202751392106
1.255,-0.0969507665723
1.26,-0.0236284725979
1.265,0.016969441851
1.27,0.0373914230586
1.275,0.0332086076305
1.28,0.00884985896118
1.285,-0.0479872212672
1.29,-0.133611913559
1.295,-0.243349306555
1.3,-0.389747846537
1.305,-0.552631600265
1.31,-0.723388888917
1.315,-0.882089827217
1.32,-1.00831243396
1.325,-1.08557149539
1.33,-1.11804982695
1.335,-1.09787389371
1.34,-1.02455159974
1.345,-0.906448575886
1.35,-0.756113268442
1.355,-0.593229514714
1.36,-0.430591808952
1.365,-0.283947221003
1.37,-0.166090245119
1.375,-0.0765287853646
1.38,-0.0155088897081
1.385,0.016969441851
1.39,0.0250890247407
1.395,0.00884985896118
1.4,-0.0359308709158
1.405,-0.105070349462
1.41,-0.198568576678
1.415,-0.324791183419
1.42,-0.475372538829
1.425,-0.650312642909
1.43,-0.817133164099
1.435,-0.963531704081
1.44,-1.0774519125
1.445,-1.14659139105
1.45,-1.15889378937
1.455,-1.12223264238
1.46,-1.03685399806
1.465,-0.902511808425
1.47,-0.735691287235
1.475,-0.548448784837
1.48,-0.381628263647
1.485,-0.231046908237
1.49,-0.113189932352
1.495,-0.027811288026
1.5,0.0332086076305
1.505,0.0617501717279
1.51,0.065932987156
1.515,0.0496938213764
1.52,0.00491309149947
1.525,-0.0642263870468
1.53,-0.16190742969
1.535,-0.288130036432
1.54,-0.446830974732
1.545,-0.613651495922
1.55,-0.784408784573
1.555,-0.934990139984
1.56,-1.0570299313
1.565,-1.13035222527
1.57,-1.14659139105
1.575,-1.11411305949
1.58,-1.02455159974
1.585,-0.890209410107
1.59,-0.731508471807
1.595,-0.556568367727
1.6,-0.385811079075
1.605,-0.243349306555
1.61,-0.129429098131
1.615,-0.0479872212672
1.62,0.00884985896118
1.625,0.0373914230586
1.63,0.0373914230586
1.635,0.021152257279
1.64,-0.0359308709158
1.645,-0.105070349462
1.65,-0.210870974995
1.655,-0.34496711666
1.66,-0.50366805496
1.665,-0.674671391578
1.67,-0.841491912768
1.675,-0.975588054433
1.68,-1.06933232961
1.685,-1.11804982695
1.69,-1.11411305949
1.695,-1.0570299313
1.7,-0.955412121191
1.705,-0.812950348671
1.71,-0.650312642909
1.715,-0.483492121719
1.72,-0.332910766308
1.725,-0.202751392106
1.73,-0.105070349462
1.735,-0.0317480554877
1.74,0.0130326743893
1.745,0.021152257279
1.75,0.0130326743893
1.755,-0.0196917051362
1.76,-0.0846483682544
1.765,-0.174209828008
1.77,-0.288130036432
1.775,-0.434528576414
1.78,-0.601349097604
1.785,-0.772352434222
1.79,-0.931053372522
1.795,-1.05309316384
1.8,-1.13428899273
1.805,-1.16283055683
1.81,-1.13847180816
1.815,-1.06514951419
1.82,-0.943109722873
1.825,-0.780472017112
1.83,-0.605531913032
1.835,-0.426408993524
1.84,-0.271890870652
1.845,-0.149851079339
1.85,-0.0479872212672
1.855,0.016969441851
1.86,0.0578134042662
1.865,0.0698697546177
1.87,0.0578134042662
1.875,0.021152257279
1.88,-0.0440504538055
1.885,-0.133611913559
1.89,-0.259588472334
1.895,-0.410169827745
1.9,-0.580927116396
1.905,-0.751930453014
1.91,-0.910631391314
1.915,-1.03685399806
1.92,-1.11804982695
1.925,-1.14659139105
1.93,-1.12223264238
1.935,-1.04497358095
1.94,-0.918750974204
1.945,-0.760050035904
1.95,-0.589292747252
1.955,-0.418289410634
1.96,-0.271890870652
1.965,-0.149851079339
1.97,-0.0642263870468
1.975,-0.00738930681837
1.98,0.0292718401688
1.985,0.0373914230586
1.99,0.0292718401688
1.995,-0.0155088897081
2,-0.0846483682544
2.005,-0.18626617836
2.01,-0.316671600529
2.015,-0.471189723401
2.02,-0.642193060019
2.025,-0.804830765781
2.03,-0.947292538302
2.035,-1.0570299313
2.04,-1.10993024406
2.045,-1.10993024406
2.05,-1.06514951419
2.055,-0.971651286971
2.06,-0.83730909734
2.065,-0.674671391578
2.07,-0.507850870388
2.075,-0.35308669955
2.08,-0.222927325347
2.085,-0.121309515242
2.09,-0.0440504538055
2.095,0.000730276071408
2.1,0.0250890247407
2.105,0.016969441851
2.11,-0.0155088897081
2.115,-0.0684092024749
2.12,-0.153787846801
2.125,-0.263771287762
2.13,-0.405987012316
2.135,-0.564687950617
2.14,-0.739628054696
2.145,-0.894392225535
2.15,-1.03267118263
2.155,-1.12223264238
2.16,-1.15889378937
2.165,-1.14240857562
2.17,-1.08138867997
2.175,-0.967468471543
2.18,-0.812950348671
2.185,-0.633827429163
2.19,-0.458887325083
2.195,-0.300432434749
2.2,-0.16190742969
2.205,-0.0642263870468
2.21,0.00884985896118
2.215,0.0496938213764
2.22,0.0698697546177
2.225,0.0617501717279
2.23,0.0292718401688
2.235,-0.0317480554877
2.24,-0.113189932352
2.245,-0.231046908237
2.25,-0.373508680757
2.255,-0.540329201947
2.26,-0.711332538565
2.265,-0.873970244327
2.27,-1.00831243396
2.275,-1.09787389371
2.28,-1.14659139105
2.285,-1.13428899273
2.29,-1.06933232961
2.295,-0.955412121191
2.3,-0.796711182891
2.305,-0.625707846273
2.31,-0.458887325083
2.315,-0.300432434749
2.32,-0.174209828008
2.325,-0.0807116007927
2.33,-0.0113260742801
2.335,0.0250890247407
2.34,0.0373914230586
2.345,0.0292718401688
2.35,-0.00738930681837
2.355,-0.0723459699366
2.36,-0.16190742969
2.365,-0.283947221003
2.37,-0.438711391842
2.375,-0.601349097604
2.38,-0.772352434222
2.385,-0.922933789632
2.39,-1.03685399806
2.395,-1.10181066117
2.4,-1.11804982695
2.405,-1.08557149539
2.41,-1.00412961853
2.415,-0.878153059755
2.42,-0.719452121455
2.425,-0.548448784837
2.43,-0.389747846537
2.435,-0.251468889444
2.44,-0.137548681021
2.445,-0.056106804157
2.45,-0.0032064913903
2.455,0.016969441851
2.46,0.021152257279
2.465,-0.0032064913903
2.47,-0.0521700366953
2.475,-0.129429098131
2.48,-0.239166491127
2.485,-0.373508680757
2.49,-0.532209619058
2.495,-0.703212955676
2.5,-0.870033476866
2.505,-1.00831243396
2.51,-1.1059934766
2.515,-1.15889378937
2.52,-1.15471097394
2.525,-1.10181066117
2.53,-1.00019285107
2.535,-0.85354826312
2.54,-0.682790974468
2.545,-0.50366805496
2.55,-0.33684753377
2.555,-0.194631809216
2.56,-0.0888311836825
2.565,-0.00738930681837
2.57,0.0415742384866
2.575,0.065932987156
2.58,0.065932987156
2.585,0.0415742384866
2.59,-0.0155088897081
2.595,-0.0969507665723
2.6,-0.206688159567
2.605,-0.34496711666
2.61,-0.50366805496
2.615,-0.67860815904
2.62,-0.849611495658
2.625,-0.98789045275
2.63,-1.08950826286
2.635,-1.13847180816
2.64,-1.13847180816
2.645,-1.08138867997
2.65,-0.975588054433
2.655,-0.82918951445
2.66,-0.658432225799
2.665,-0.487428889181
2.67,-0.332910766308
2.675,-0.198568576678
2.68,-0.0969507665723
2.685,-0.027811288026
2.69,0.016969441851
2.695,0.0373914230586
2.7,0.0332086076305
2.705,0.000730276071408
2.71,-0.056106804157
2.715,-0.141731496449
2.72,-0.255651704872
2.725,-0.405987012316
2.73,-0.568870766045
2.735,-0.739628054696
2.74,-0.894392225535
2.745,-1.02455159974
2.75,-1.09787389371
2.755,-1.12223264238
2.76,-1.09369107828
2.765,-1.01643201685
2.77,-0.898328992997
2.775,-0.743810870124
2.78,-0.572807533506
2.785,-0.410169827745
2.79,-0.271890870652
2.795,-0.157970662229
2.8,-0.0684092024749
2.805,-0.0155088897081
2.81,0.016969441851
2.815,0.021152257279
2.82,0.000730276071408
2.825,-0.0440504538055
2.83,-0.113189932352
2.835,-0.218990557885
2.84,-0.34496711666
2.845,-0.499731287498
2.85,-0.67048857615
2.855,-0.841491912768
2.86,-0.98789045275
2.865,-1.09369107828
2.87,-1.15471097394
2.875,-1.16283055683
2.88,-1.11411305949
2.885,-1.02036878431
2.89,-0.878153059755
2.895,-0.707149723137
2.9,-0.528272851596
2.905,-0.357269514978
2.91,-0.210870974995
2.915,-0.0969507665723
2.92,-0.0155088897081
2.925,0.0373914230586
2.93,0.065932987156
2.935,0.065932987156
2.94,0.0415742384866
2.945,-0.0032064913903
2.95,-0.0846483682544
2.955,-0.18626617836
2.96,-0.320608367991
2.965,-0.479309306291
2.97,-0.650312642909
2.975,-0.82106993156
2.98,-0.963531704081
2.985,-1.06933232961
2.99,-1.13428899273
2.995,-1.14240857562
3,-1.09787389371
3.005,-0.99601003564
3.01,-0.85354826312
3.015,-0.682790974468
3.02,-0.51178763785
3.025,-0.349149932088
3.03,-0.214807742457
3.035,-0.105070349462
3.04,-0.027811288026
3.045,0.016969441851
3.05,0.0415742384866
3.055,0.0373914230586
3.06,0.00491309149947
3.065,-0.0479872212672
3.07,-0.129429098131
3.075,-0.239166491127
3.08,-0.385811079075
3.085,-0.548448784837
3.09,-0.719452121455
3.095,-0.873970244327
3.1,-1.00412961853
3.105,-1.08557149539
3.11,-1.11804982695
3.115,-1.09787389371
3.12,-1.02455159974
3.125,-0.918750974204
3.13,-0.764232851332
3.135,-0.597412330142
3.14,-0.434528576414
3.145,-0.292066803893
3.15,-0.174209828008
3.155,-0.0807116007927
3.16,-0.0196917051362
3.165,0.016969441851
3.17,0.021152257279
3.175,0.00491309149947
3.18,-0.0398676383775
3.185,-0.109007116924
3.19,-0.206688159567
3.195,-0.33684753377
3.2,-0.487428889181
3.205,-0.654249410371
3.21,-0.825252746989
3.215,-0.967468471543
3.22,-1.08138867997
3.225,-1.15077420648
3.23,-1.16283055683
3.235,-1.12616940984
3.24,-1.04079076552
3.245,-0.910631391314
3.25,-0.743810870124
3.255,-0.564687950617
3.26,-0.393930661965
3.265,-0.243349306555
3.27,-0.121309515242
3.275,-0.0317480554877
3.28,0.0250890247407
3.285,0.0578134042662
3.29,0.0698697546177
3.295,0.0496938213764
3.3,0.016969441851
3.305,-0.0521700366953
3.31,-0.149851079339
3.315,-0.271890870652
3.32,-0.422472226062
3.325,-0.597412330142
3.33,-0.764232851332
3.335,-0.918750974204
3.34,-1.04079076552
3.345,-1.12223264238
3.35,-1.14659139105
3.355,-1.12616940984
3.36,-1.04497358095
3.365,-0.918750974204
3.37,-0.764232851332
3.375,-0.593229514714
3.38,-0.426408993524
3.385,-0.280010453542
3.39,-0.157970662229
3.395,-0.0684092024749
3.4,-0.00738930681837
3.405,0.0292718401688
3.41,0.0415742384866
3.415,0.0292718401688
3.42,-0.0113260742801
3.425,-0.0765287853646
3.43,-0.174209828008
3.435,-0.296249619321
3.44,-0.450767742193
3.445,-0.617588263383
3.45,-0.780472017112
3.455,-0.931053372522
3.46,-1.04079076552
3.465,-1.1059934766
3.47,-1.11411305949
3.475,-1.0774519125
3.48,-0.992073268179
3.485,-0.865850661437
3.49,-0.707149723137
3.495,-0.544512017375
3.5,-0.385811079075
3.505,-0.251468889444
3.51,-0.137548681021
3.515,-0.0642263870468
3.52,-0.00738930681837
3.525,0.021152257279
3.53,0.021152257279
3.535,0.000730276071408
3.54,-0.0521700366953
3.545,-0.121309515242
3.55,-0.227110140775
3.555,-0.357269514978
3.56,-0.51178763785
3.565,-0.682790974468
3.57,-0.849611495658
3.575,-0.992073268179
3.58,-1.09787389371
3.585,-1.15471097394
3.59,-1.15889378937
3.595,-1.11411305949
3.6,-1.01643201685
3.605,-0.873970244327
3.61,-0.707149723137
3.615,-0.528272851596
3.62,-0.357269514978
3.625,-0.214807742457
3.63,-0.100887534034
3.635,-0.0196917051362
3.64,0.0373914230586
3.645,0.065932987156
3.65,0.065932987156
3.655,0.0415742384866
3.66,0.000730276071408
3.665,-0.0723459699366
3.67,-0.174209828008
3.675,-0.304369202211
3.68,-0.458887325083
3.685,-0.629890661701
3.69,-0.800647950353
3.695,-0.947292538302
3.7,-1.06514951419
3.705,-1.12616940984
3.71,-1.14659139105
3.715,-1.10993024406
3.72,-1.02036878431
3.725,-0.886272642645
3.73,-0.723388888917
3.735,-0.548448784837
3.74,-0.385811079075
3.745,-0.243349306555
3.75,-0.129429098131
3.755,-0.0440504538055
3.76,0.00491309149947
3.765,0.0332086076305
3.77,0.0373914230586
3.775,0.016969441851
3.78,-0.0317480554877
3.785,-0.109007116924
3.79,-0.206688159567
3.795,-0.341030349198
3.8,-0.499731287498
3.805,-0.67048857615
3.81,-0.833372329878
3.815,-0.971651286971
3.82,-1.06514951419
3.825,-1.11411305949
3.83,-1.10993024406
3.835,-1.0570299313
3.84,-0.959348888653
3.845,-0.82106993156
3.85,-0.66236899326
3.855,-0.491611704609
3.86,-0.34496711666
3.865,-0.210870974995
3.87,-0.109007116924
3.875,-0.0440504538055
3.88,0.00491309149947
3.885,0.021152257279
3.89,0.016969441851
3.895,-0.0196917051362
3.9,-0.0765287853646
3.905,-0.16190742969
3.91,-0.280010453542
3.915,-0.422472226062
3.92,-0.589292747252
3.925,-0.760050035904
3.93,-0.914568158776
3.935,-1.04497358095
3.94,-1.12616940984
3.945,-1.16283055683
3.95,-1.14659139105
3.955,-1.0774519125
3.96,-0.963531704081
3.965,-0.804830765781
3.97,-0.625707846273
3.975,-0.450767742193
3.98,-0.296249619321
3.985,-0.16190742969
3.99,-0.0642263870468
3.995,0.00884985896118
4,0.0496938213764
4.005,0.0698697546177
4.01,0.0617501717279
4.015,0.0250890247407
4.02,-0.0317480554877
4.025,-0.117126699814
4.03,-0.235229723665
4.035,-0.373508680757
4.04,-0.544512017375
4.045,-0.719452121455
4.05,-0.882089827217
4.055,-1.01224920142
4.06,-1.1059934766
4.065,-1.14659139105
4.07,-1.13035222527
4.075,-1.06933232961
4.08,-0.955412121191
4.085,-0.804830765781
4.09,-0.625707846273
4.095,-0.458887325083
4.1,-0.312488785101
4.105,-0.182329410898
4.11,-0.0846483682544
4.115,-0.0155088897081
4.12,0.0250890247407
4.125,0.0415742384866
4.13,0.0292718401688
4.135,-0.0032064913903
4.14,-0.0642263870468
4.145,-0.153787846801
4.15,-0.275827638114
4.155,-0.422472226062
4.16,-0.585109931824
4.165,-0.756113268442
4.17,-0.910631391314
4.175,-1.02455159974
4.18,-1.10181066117
4.185,-1.12223264238
4.19,-1.08950826286
4.195,-1.00831243396
4.2,-0.886272642645
4.205,-0.731508471807
4.21,-0.564687950617
4.215,-0.402050244855
4.22,-0.259588472334
4.225,-0.149851079339
4.23,-0.0684092024749
4.235,-0.0113260742801
4.24,0.016969441851
4.245,0.016969441851
4.25,0.000730276071408
4.255,-0.0479872212672
4.26,-0.117126699814
4.265,-0.222927325347
4.27,-0.35308669955
4.275,-0.507850870388
4.28,-0.674671391578
4.285,-0.84542868023
4.29,-0.98789045275
4.295,-1.09369107828
4.3,-1.15077420648
4.305,-1.15471097394
4.31,-1.11411305949
4.315,-1.01224920142
4.32,-0.878153059755
4.325,-0.699030140247
4.33,-0.524090036168
4.335,-0.35308669955
4.34,-0.214807742457
4.345,-0.100887534034
4.35,-0.0155088897081
4.355,0.0373914230586
4.36,0.065932987156
4.365,0.065932987156
4.37,0.0455110059484
4.375,0.000730276071408
4.38,-0.0765287853646
4.385,-0.182329410898
4.39,-0.308552017639
4.395,-0.471189723401
4.4,-0.642193060019
4.405,-0.809013581209
4.41,-0.955412121191
4.415,-1.06933232961
4.42,-1.13035222527
4.425,-1.14659139105
4.43,-1.1059934766
4.435,-1.01224920142
4.44,-0.878153059755
4.445,-0.715269306027
4.45,-0.540329201947
4.455,-0.377691496185
4.46,-0.235229723665
4.465,-0.125246282703
4.47,-0.0440504538055
4.475,0.00884985896118
4.48,0.0332086076305
4.485,0.0373914230586
4.49,0.016969441851
4.495,-0.0359308709158
4.5,-0.113189932352
4.505,-0.218990557885
4.51,-0.349149932088
4.515,-0.507850870388
4.52,-0.682790974468
4.525,-0.841491912768
4.53,-0.979770869861
4.535,-1.07326909708
4.54,-1.11804982695
4.545,-1.10993024406
4.55,-1.05309316384
4.555,-0.955412121191
4.56,-0.817133164099
4.565,-0.650312642909
4.57,-0.487428889181
4.575,-0.332910766308
4.58,-0.206688159567
4.585,-0.105070349462
4.59,-0.0359308709158
4.595,0.00491309149947
4.6,0.021152257279
4.605,0.016969441851
4.61,-0.0196917051362
4.615,-0.0765287853646
4.62,-0.166090245119
4.625,-0.283947221003
4.63,-0.422472226062
4.635,-0.589292747252
4.64,-0.756113268442
4.645,-0.914568158776
4.65,-1.04079076552
4.655,-1.12616940984
4.66,-1.16701337226
4.665,-1.14659139105
4.67,-1.08138867997
4.675,-0.959348888653
4.68,-0.796711182891
4.685,-0.621771078811
4.69,-0.442648159304
4.695,-0.283947221003
4.7,-0.153787846801
4.705,-0.056106804157
4.71,0.016969441851
4.715,0.0578134042662
4.72,0.0698697546177
4.725,0.0578134042662
4.73,0.0250890247407
4.735,-0.0359308709158
4.74,-0.129429098131
4.745,-0.243349306555
4.75,-0.393930661965
4.755,-0.560751183155
4.76,-0.731508471807
4.765,-0.890209410107
4.77,-1.02036878431
4.775,-1.1059934766
4.78,-1.13847180816
4.785,-1.12616940984
4.79,-1.0570299313
4.795,-0.939172955412
4.8,-0.788591600001
4.805,-0.617588263383
4.81,-0.446830974732
4.815,-0.300432434749
4.82,-0.17814659547
4.825,-0.0807116007927
4.83,-0.0155088897081
4.835,0.0292718401688
4.84,0.0373914230586
4.845,0.0292718401688
4.85,-0.0032064913903
4.855,-0.0642263870468
4.86,-0.153787846801
4.865,-0.271890870652
4.87,-0.426408993524
4.875,-0.589292747252
4.88,-0.760050035904
4.885,-0.910631391314
4.89,-1.03267118263
4.895,-1.10181066117
4.9,-1.11804982695
4.905,-1.08950826286
4.91,-1.00412961853
4.915,-0.886272642645
4.92,-0.727571704345
4.925,-0.564687950617
4.93,-0.405987012316
4.935,-0.267708055224
4.94,-0.153787846801
4.945,-0.0684092024749
4.95,-0.0155088897081
4.955,0.016969441851
4.96,0.021152257279
4.965,-0.0032064913903
4.97,-0.0479872212672
4.975,-0.117126699814
4.98,-0.214807742457
4.985,-0.34496711666
4.99,-0.499731287498
4.995,-0.666551808688
5,-0.83730909734
5.005,-0.983953685289
5.01,-1.08950826286
5.015,-1.15889378937
5.02,-1.16283055683
5.025,-1.12223264238
5.03,-1.02455159974
5.035,-0.890209410107
5.04,-0.719452121455
5.045,-0.536392434486
5.05,-0.369571913296
5.055,-0.218990557885
5.06,-0.100887534034
5.065,-0.0236284725979
5.07,0.0373914230586
5.075,0.065932987156
5.08,0.0698697546177
5.085,0.0496938213764
5.09,0.00491309149947
5.095,-0.0684092024749
5.1,-0.16190742969
5.105,-0.292066803893
5.11,-0.446830974732
5.115,-0.613651495922
5.12,-0.784408784573
5.125,-0.934990139984
5.13,-1.05309316384
5.135,-1.12223264238
5.14,-1.14240857562
5.145,-1.11411305949
5.15,-1.02455159974
5.155,-0.898328992997
5.16,-0.731508471807
5.165,-0.556568367727
5.17,-0.393930661965
5.175,-0.251468889444
5.18,-0.133611913559
5.185,-0.0479872212672
5.19,0.00491309149947
5.195,0.0373914230586
5.2,0.0415742384866
5.205,0.016969441851
5.21,-0.0317480554877
5.215,-0.100887534034
5.22,-0.206688159567
5.225,-0.33684753377
5.23,-0.49554847207
5.235,-0.666551808688
5.24,-0.82918951445
5.245,-0.963531704081
5.25,-1.06121274672
5.255,-1.10993024406
5.26,-1.10993024406
5.265,-1.05309316384
5.27,-0.955412121191
5.275,-0.825252746989
5.28,-0.658432225799
5.285,-0.491611704609
5.29,-0.341030349198
5.295,-0.210870974995
5.3,-0.109007116924
5.305,-0.0359308709158
5.31,0.00491309149947
5.315,0.021152257279
5.32,0.016969441851
5.325,-0.0196917051362
5.33,-0.0723459699366
5.335,-0.16190742969
5.34,-0.280010453542
5.345,-0.418289410634
5.35,-0.589292747252
5.355,-0.756113268442
5.36,-0.914568158776
5.365,-1.04079076552
5.37,-1.12616940984
5.375,-1.16701337226
5.38,-1.15077420648
5.385,-1.0774519125
5.39,-0.967468471543
5.395,-0.812950348671
5.4,-0.638010244591
5.405,-0.458887325083
5.41,-0.300432434749
5.415,-0.166090245119
5.42,-0.0642263870468
5.425,0.00884985896118
5.43,0.0496938213764
5.435,0.065932987156
5.44,0.0578134042662
5.445,0.0332086076305
5.45,-0.027811288026
5.455,-0.117126699814
5.46,-0.227110140775
5.465,-0.373508680757
5.47,-0.540329201947
5.475,-0.715269306027
5.48,-0.878153059755
5.485,-1.01224920142
5.49,-1.10993024406
5.495,-1.14659139105
5.5,-1.13847180816
5.505,-1.07326909708
5.51,-0.959348888653
5.515,-0.804830765781
5.52,-0.629890661701
5.525,-0.467006907973
5.53,-0.312488785101
5.535,-0.182329410898
5.54,-0.0888311836825
5.545,-0.0155088897081
5.55,0.0250890247407
5.555,0.0415742384866
5.56,0.0292718401688
5.565,-0.0032064913903
5.57,-0.056106804157
5.575,-0.149851079339
5.58,-0.263771287762
5.585,-0.414352643173
5.59,-0.585109931824
5.595,-0.747747637586
5.6,-0.902511808425
5.605,-1.02455159974
5.61,-1.09787389371
5.615,-1.11411305949
5.62,-1.08138867997
5.625,-1.00412961853
5.63,-0.882089827217
5.635,-0.731508471807
5.64,-0.560751183155
5.645,-0.405987012316
5.65,-0.259588472334
5.655,-0.153787846801
5.66,-0.0684092024749
5.665,-0.0113260742801
5.67,0.016969441851
5.675,0.0250890247407
5.68,0.000730276071408
5.685,-0.0440504538055
5.69,-0.117126699814
5.695,-0.218990557885
5.7,-0.34496711666
5.705,-0.50366805496
5.71,-0.674671391578
5.715,-0.841491912768
5.72,-0.983953685289
5.725,-1.09369107828
5.73,-1.14659139105
5.735,-1.15889378937
5.74,-1.1059934766
5.745,-1.01643201685
5.75,-0.873970244327
5.755,-0.703212955676
5.76,-0.524090036168
5.765,-0.357269514978
5.77,-0.210870974995
5.775,-0.0969507665723
5.78,-0.0113260742801
5.785,0.0373914230586
5.79,0.065932987156
5.795,0.065932987156
5.8,0.0415742384866
5.805,-0.0032064913903
5.81,-0.0765287853646
5.815,-0.182329410898
5.82,-0.308552017639
5.825,-0.471189723401
5.83,-0.642193060019
5.835,-0.809013581209
5.84,-0.951229305763
5.845,-1.06933232961
5.85,-1.13035222527
5.855,-1.14659139105
5.86,-1.10181066117
5.865,-1.01643201685
5.87,-0.878153059755
5.875,-0.711332538565
5.88,-0.536392434486
5.885,-0.369571913296
5.89,-0.227110140775
5.895,-0.117126699814
5.9,-0.0398676383775
5.905,0.0130326743893
5.91,0.0415742384866
5.915,0.0373914230586
5.92,0.016969441851
5.925,-0.0359308709158
5.93,-0.117126699814
5.935,-0.222927325347
5.94,-0.361452330406
5.945,-0.524090036168
5.95,-0.690910557358
5.955,-0.85354826312
5.96,-0.992073268179
5.965,-1.07326909708
5.97,-1.11804982695
5.975,-1.10993024406
5.98,-1.04497358095
5.985,-0.943109722873
5.99,-0.800647950353
5.995,-0.633827429163
6,-0.467006907973
6.005,-0.320608367991
6.01,-0.190448993788
6.015,-0.0927679511442
6.02,-0.027811288026
6.025,0.00884985896118
6.03,0.0250890247407
6.035,0.00884985896118
6.04,-0.0236284725979
6.045,-0.0888311836825
6.05,-0.17814659547
6.055,-0.300432434749
6.06,-0.446830974732
6.065,-0.617588263383
6.07,-0.784408784573
6.075,-0.939172955412
6.08,-1.06121274672
6.085,-1.13428899273
6.09,-1.15889378937
6.095,-1.13428899273
6.1,-1.0570299313
6.105,-0.926870557094
6.11,-0.772352434222
6.115,-0.589292747252
6.12,-0.418289410634
6.125,-0.263771287762
6.13,-0.137548681021
6.135,-0.0440504538055
6.14,0.021152257279
6.145,0.0578134042662
6.15,0.0698697546177
6.155,0.0536305888381
6.16,0.021152257279
6.165,-0.0479872212672
6.17,-0.133611913559
6.175,-0.259588472334
6.18,-0.410169827745
6.185,-0.580927116396
6.19,-0.747747637586
6.195,-0.910631391314
6.2,-1.03267118263
6.205,-1.12223264238
6.21,-1.15077420648
6.215,-1.12223264238
6.22,-1.04079076552
6.225,-0.922933789632
6.23,-0.760050035904
6.235,-0.585109931824
6.24,-0.414352643173
6.245,-0.263771287762
6.25,-0.149851079339
6.255,-0.056106804157
6.26,0.000730276071408
6.265,0.0332086076305
6.27,0.0455110059484
6.275,0.0292718401688
6.28,-0.0155088897081
6.285,-0.0846483682544
6.29,-0.18626617836
6.295,-0.308552017639
6.3,-0.467006907973
6.305,-0.633827429163
6.31,-0.804830765781
6.315,-0.951229305763
6.32,-1.05309316384
6.325,-1.10993024406
6.33,-1.11411305949
6.335,-1.06514951419
6.34,-0.971651286971
6.345,-0.841491912768
6.35,-0.67860815904
6.355,-0.51178763785
6.36,-0.35308669955
6.365,-0.227110140775
6.37,-0.117126699814
6.375,-0.0479872212672
6.38,0.000730276071408
6.385,0.021152257279
6.39,0.016969441851
6.395,-0.0113260742801
6.4,-0.0642263870468
6.405,-0.149851079339
6.41,-0.263771287762
6.415,-0.402050244855
6.42,-0.560751183155
6.425,-0.735691287235
6.43,-0.898328992997
6.435,-1.02455159974
6.44,-1.11804982695
6.445,-1.15889378937
6.45,-1.14659139105
6.455,-1.08557149539
6.46,-0.975588054433
6.465,-0.82918951445
6.47,-0.650312642909
6.475,-0.475372538829
6.48,-0.308552017639
6.485,-0.174209828008
6.49,-0.0684092024749
6.495,0.00491309149947
6.5,0.0496938213764
6.505,0.0698697546177
6.51,0.0617501717279
6.515,0.0373914230586
6.52,-0.0236284725979
6.525,-0.105070349462
6.53,-0.218990557885
6.535,-0.361452330406
6.54,-0.524090036168
6.545,-0.699030140247
6.55,-0.861667846009
6.555,-1.00019285107
6.56,-1.09787389371
6.565,-1.13847180816
6.57,-1.13428899273
6.575,-1.07326909708
6.58,-0.971651286971
6.585,-0.817133164099
6.59,-0.646129827481
6.595,-0.471189723401
6.6,-0.320608367991
6.605,-0.190448993788
6.61,-0.0846483682544
6.615,-0.0196917051362
6.62,0.021152257279
6.625,0.0455110059484
6.63,0.0332086076305
6.635,0.000730276071408
6.64,-0.0602896195851
6.645,-0.149851079339
6.65,-0.271890870652
6.655,-0.414352643173
6.66,-0.580927116396
6.665,-0.743810870124
6.67,-0.902511808425
6.675,-1.02036878431
6.68,-1.09369107828
6.685,-1.12616940984
6.69,-1.08950826286
6.695,-1.01224920142
6.7,-0.894392225535
6.705,-0.747747637586
6.71,-0.580927116396
6.715,-0.418289410634
6.72,-0.275827638114
6.725,-0.157970662229
6.73,-0.0684092024749
6.735,-0.0155088897081
6.74,0.016969441851
6.745,0.0250890247407
6.75,0.00491309149947
6.755,-0.0398676383775
6.76,-0.109007116924
6.765,-0.210870974995
6.77,-0.341030349198
6.775,-0.491611704609
6.78,-0.66236899326
6.785,-0.825252746989
6.79,-0.979770869861
6.795,-1.08138867997
6.8,-1.14659139105
6.805,-1.15471097394
6.81,-1.11804982695
6.815,-1.02455159974
6.82,-0.890209410107
6.825,-0.723388888917
6.83,-0.544512017375
6.835,-0.373508680757
6.84,-0.227110140775
6.845,-0.109007116924
6.85,-0.027811288026
6.855,0.0373914230586
6.86,0.0698697546177
6.865,0.065932987156
6.87,0.0496938213764
6.875,0.00491309149947
6.88,-0.0642263870468
6.885,-0.17002701258
6.89,-0.296249619321
6.895,-0.450767742193
6.9,-0.621771078811
6.905,-0.792528367463
6.91,-0.943109722873
6.915,-1.06121274672
6.92,-1.12616940984
6.925,-1.14659139105
6.93,-1.10993024406
6.935,-1.02455159974
6.94,-0.890209410107
6.945,-0.723388888917
6.95,-0.552631600265
6.955,-0.389747846537
6.96,-0.243349306555
6.965,-0.137548681021
6.97,-0.0479872212672
6.975,0.00491309149947
6.98,0.0332086076305
6.985,0.0373914230586
6.99,0.021152257279
6.995,-0.0317480554877
7,-0.100887534034
7.005,-0.202751392106
7.01,-0.33684753377
7.015,-0.499731287498
7.02,-0.67048857615
7.025,-0.833372329878
7.03,-0.971651286971
7.035,-1.06933232961
7.04,-1.11411305949
7.045,-1.10993024406
7.05,-1.0570299313
7.055,-0.955412121191
7.06,-0.82106993156
7.065,-0.658432225799
7.07,-0.491611704609
7.075,-0.341030349198
7.08,-0.210870974995
7.085,-0.113189932352
7.09,-0.0398676383775
7.095,0.00491309149947
7.1,0.021152257279
7.105,0.016969441851
7.11,-0.0196917051362
7.115,-0.0765287853646
7.12,-0.16190742969
7.125,-0.275827638114
7.13,-0.418289410634
7.135,-0.585109931824
7.14,-0.756113268442
7.145,-0.914568158776
7.15,-1.04497358095
7.155,-1.13035222527
7.16,-1.16701337226
7.165,-1.14240857562
7.17,-1.0774519125
7.175,-0.959348888653
7.18,-0.804830765781
7.185,-0.621771078811
7.19,-0.446830974732
7.195,-0.292066803893
7.2,-0.157970662229
7.205,-0.0602896195851
7.21,0.00884985896118
7.215,0.0496938213764
7.22,0.0698697546177
7.225,0.0578134042662
7.23,0.0292718401688
7.235,-0.0317480554877
7.24,-0.117126699814
7.245,-0.239166491127
7.25,-0.381628263647
7.255,-0.548448784837
7.26,-0.723388888917
7.265,-0.878153059755
7.27,-1.01224920142
7.275,-1.1059934766
7.28,-1.14240857562
7.285,-1.12616940984
7.29,-1.06514951419
7.295,-0.943109722873
7.3,-0.780472017112
7.305,-0.613651495922
7.31,-0.438711391842
7.315,-0.292066803893
7.32,-0.166090245119
7.325,-0.0723459699366
7.33,-0.0113260742801
7.335,0.0292718401688
7.34,0.0415742384866
7.345,0.0250890247407
7.35,-0.0113260742801
7.355,-0.0765287853646
7.36,-0.17002701258
7.365,-0.292066803893
7.37,-0.442648159304
7.375,-0.609468680494
7.38,-0.776289201684
7.385,-0.922933789632
7.39,-1.03685399806
7.395,-1.10181066117
7.4,-1.11804982695
7.405,-1.08138867997
7.41,-0.99601003564
7.415,-0.870033476866
7.42,-0.715269306027
7.425,-0.544512017375
7.43,-0.389747846537
7.435,-0.247532121983
7.44,-0.133611913559
7.445,-0.056106804157
7.45,-0.00738930681837
7.455,0.0250890247407
7.46,0.016969441851
7.465,-0.00738930681837
7.47,-0.056106804157
7.475,-0.137548681021
7.48,-0.243349306555
7.485,-0.381628263647
7.49,-0.540329201947
7.495,-0.715269306027
7.5,-0.882089827217
7.505,-1.01643201685
7.51,-1.10993024406
7.515,-1.15889378937
7.52,-1.15077420648
7.525,-1.09787389371
7.53,-0.992073268179
7.535,-0.84542868023
7.54,-0.67048857615
7.545,-0.487428889181
7.55,-0.32872795088
7.555,-0.190448993788
7.56,-0.0807116007927
7.565,-0.0032064913903
7.57,0.0455110059484
7.575,0.0698697546177
7.58,0.065932987156
7.585,0.0373914230586
7.59,-0.0155088897081
7.595,-0.100887534034
7.6,-0.214807742457
7.605,-0.35308669955
7.61,-0.515970453278
7.615,-0.690910557358
7.62,-0.857731078548
7.625,-1.00019285107
7.63,-1.09787389371
7.635,-1.14240857562
7.64,-1.13847180816
7.645,-1.0774519125
7.65,-0.971651286971
7.655,-0.825252746989
7.66,-0.650312642909
7.665,-0.483492121719
7.67,-0.324791183419
7.675,-0.194631809216
7.68,-0.0969507665723
7.685,-0.0236284725979
7.69,0.021152257279
7.695,0.0415742384866
7.7,0.0332086076305
7.705,0.000730276071408
7.71,-0.056106804157
7.715,-0.141731496449
7.72,-0.259588472334
7.725,-0.405987012316
7.73,-0.572807533506
7.735,-0.743810870124
7.74,-0.898328992997
7.745,-1.02036878431
7.75,-1.09369107828
7.755,-1.11804982695
7.76,-1.08950826286
7.765,-1.01224920142
7.77,-0.890209410107
7.775,-0.739628054696
7.78,-0.568870766045
7.785,-0.410169827745
7.79,-0.267708055224
7.795,-0.153787846801
7.8,-0.0723459699366
7.805,-0.0155088897081
7.81,0.016969441851
7.815,0.021152257279
7.82,0.000730276071408
7.825,-0.0398676383775
7.83,-0.113189932352
7.835,-0.218990557885
7.84,-0.34496711666
7.845,-0.49554847207
7.85,-0.666551808688
7.855,-0.83730909734
7.86,-0.983953685289
7.865,-1.08950826286
7.87,-1.15077420648
7.875,-1.15471097394
7.88,-1.11804982695
7.885,-1.02036878431
7.89,-0.886272642645
7.895,-0.711332538565
7.9,-0.532209619058
7.905,-0.357269514978
7.91,-0.214807742457
7.915,-0.100887534034
7.92,-0.0196917051362
7.925,0.0373914230586
7.93,0.065932987156
7.935,0.0698697546177
7.94,0.0455110059484
7.945,0.000730276071408
7.95,-0.0723459699366
7.955,-0.174209828008
7.96,-0.304369202211
7.965,-0.454950557621
7.97,-0.629890661701
7.975,-0.792528367463
7.98,-0.943109722873
7.985,-1.06121274672
7.99,-1.12616940984
7.995,-1.14659139105
8,-1.10993024406
8.005,-1.02455159974
8.01,-0.890209410107
8.015,-0.727571704345
8.02,-0.552631600265
8.025,-0.385811079075
8.03,-0.243349306555
8.035,-0.133611913559
8.04,-0.0440504538055
8.045,0.00884985896118
8.05,0.0373914230586
8.055,0.0373914230586
8.06,0.016969441851
8.065,-0.0317480554877
8.07,-0.105070349462
8.075,-0.210870974995
8.08,-0.34496711666
8.085,-0.499731287498
8.09,-0.67048857615
8.095,-0.833372329878
8.1,-0.971651286971
8.105,-1.06933232961
8.11,-1.11804982695
8.115,-1.11411305949
8.12,-1.06121274672
8.125,-0.963531704081
8.13,-0.833372329878
8.135,-0.666551808688
8.14,-0.499731287498
8.145,-0.349149932088
8.15,-0.218990557885
8.155,-0.117126699814
8.16,-0.0440504538055
8.165,0.00491309149947
8.17,0.021152257279
8.175,0.016969441851
8.18,-0.0155088897081
8.185,-0.0723459699366
8.19,-0.16190742969
8.195,-0.275827638114
8.2,-0.414352643173
8.205,-0.572807533506
8.21,-0.747747637586
8.215,-0.910631391314
8.22,-1.03685399806
8.225,-1.12616940984
8.23,-1.16283055683
8.235,-1.15077420648
8.24,-1.08557149539
8.245,-0.971651286971
8.25,-0.82106993156
8.255,-0.646129827481
8.26,-0.467006907973
8.265,-0.304369202211
8.27,-0.174209828008
8.275,-0.0684092024749
8.28,0.00491309149947
8.285,0.0496938213764
8.29,0.0698697546177
8.295,0.0617501717279
8.3,0.0292718401688
8.305,-0.0236284725979
8.31,-0.109007116924
8.315,-0.218990557885
8.32,-0.361452330406
8.325,-0.524090036168
8.33,-0.694847324819
8.335,-0.865850661437
8.34,-1.00412961853
8.345,-1.09369107828
8.35,-1.14659139105
8.355,-1.13035222527
8.36,-1.0774519125
8.365,-0.967468471543
8.37,-0.812950348671
8.375,-0.646129827481
8.38,-0.475372538829
8.385,-0.316671600529
8.39,-0.194631809216
8.395,-0.0927679511442
8.4,-0.0196917051362
8.405,0.021152257279
8.41,0.0373914230586
8.415,0.0332086076305
8.42,0.00491309149947
8.425,-0.056106804157
8.43,-0.141731496449
8.435,-0.259588472334
8.44,-0.410169827745
8.445,-0.576990348934
8.45,-0.747747637586
8.455,-0.898328992997
8.46,-1.02455159974
8.465,-1.09369107828
8.47,-1.11411305949
8.475,-1.08950826286
8.48,-1.00831243396
8.485,-0.890209410107
8.49,-0.735691287235
8.495,-0.564687950617
8.5,-0.405987012316
8.505,-0.263771287762
8.51,-0.149851079339
8.515,-0.0684092024749
8.52,-0.0113260742801
8.525,0.016969441851
8.53,0.0250890247407
8.535,0.00491309149947
8.54,-0.0440504538055
8.545,-0.113189932352
8.55,-0.210870974995
8.555,-0.341030349198
8.56,-0.491611704609
8.565,-0.658432225799
8.57,-0.82106993156
8.575,-0.971651286971
8.58,-1.08557149539
8.585,-1.14659139105
8.59,-1.16283055683
8.595,-1.12616940984
8.6,-1.03267118263
8.605,-0.902511808425
8.61,-0.735691287235
8.615,-0.556568367727
8.62,-0.381628263647
8.625,-0.231046908237
8.63,-0.113189932352
8.635,-0.027811288026
8.64,0.0292718401688
8.645,0.0617501717279
8.65,0.065932987156
8.655,0.0496938213764
8.66,0.00491309149947
8.665,-0.0684092024749
8.67,-0.17002701258
8.675,-0.300432434749
8.68,-0.450767742193
8.685,-0.621771078811
8.69,-0.788591600001
8.695,-0.939172955412
8.7,-1.05309316384
8.705,-1.12616940984
8.71,-1.14659139105
8.715,-1.1059934766
8.72,-1.02455159974
8.725,-0.894392225535
8.73,-0.727571704345
8.735,-0.556568367727
8.74,-0.389747846537
8.745,-0.247532121983
8.75,-0.133611913559
8.755,-0.0479872212672
8.76,0.00491309149947
8.765,0.0332086076305
8.77,0.0373914230586
8.775,0.0130326743893
8.78,-0.0317480554877
8.785,-0.113189932352
8.79,-0.214807742457
8.795,-0.349149932088
8.8,-0.515970453278
8.805,-0.68672774193
8.81,-0.84542868023
8.815,-0.979770869861
8.82,-1.07326909708
8.825,-1.11804982695
8.83,-1.1059934766
8.835,-1.04891034841
8.84,-0.947292538302
8.845,-0.804830765781
8.85,-0.638010244591
8.855,-0.471189723401
8.86,-0.324791183419
8.865,-0.194631809216
8.87,-0.100887534034
8.875,-0.0359308709158
8.88,0.00491309149947
8.885,0.021152257279
8.89,0.016969441851
8.895,-0.0236284725979
8.9,-0.0807116007927
8.905,-0.17002701258
8.91,-0.292066803893
8.915,-0.434528576414
8.92,-0.605531913032
8.925,-0.776289201684
8.93,-0.934990139984
8.935,-1.0570299313
8.94,-1.13847180816
8.945,-1.16701337226
8.95,-1.14659139105
8.955,-1.06933232961
8.96,-0.947292538302
8.965,-0.784408784573
8.97,-0.605531913032
8.975,-0.426408993524
8.98,-0.271890870652
8.985,-0.141731496449
8.99,-0.0479872212672
8.995,0.021152257279
9,0.0536305888381
9.005,0.0740525700458
9.01,0.0578134042662
9.015,0.021152257279
9.02,-0.0398676383775
9.025,-0.133611913559
9.03,-0.255651704872
9.035,-0.402050244855
9.04,-0.568870766045
9.045,-0.747747637586
9.05,-0.902511808425
9.055,-1.03267118263
9.06,-1.11804982695
9.065,-1.15077420648
9.07,-1.12616940984
9.075,-1.05309316384
9.08,-0.926870557094
9.085,-0.764232851332
9.09,-0.589292747252
9.095,-0.422472226062
9.1,-0.275827638114
9.105,-0.157970662229
9.11,-0.0642263870468
9.115,-0.00738930681837
9.12,0.0332086076305
9.125,0.0373914230586
9.13,0.0250890247407
9.135,-0.0196917051362
9.14,-0.0888311836825
9.145,-0.182329410898
9.15,-0.312488785101
9.155,-0.467006907973
9.16,-0.633827429163
9.165,-0.800647950353
9.17,-0.943109722873
9.175,-1.04891034841
9.18,-1.1059934766
9.185,-1.10993024406
9.19,-1.06514951419
9.195,-0.975588054433
9.2,-0.84542868023
9.205,-0.682790974468
9.21,-0.515970453278
9.215,-0.365389097868
9.22,-0.227110140775
9.225,-0.125246282703
9.23,-0.0521700366953
9.235,-0.0032064913903
9.24,0.021152257279
9.245,0.0130326743893
9.25,-0.0155088897081
9.255,-0.0684092024749
9.26,-0.153787846801
9.265,-0.263771287762
9.27,-0.402050244855
9.275,-0.564687950617
9.28,-0.739628054696
9.285,-0.902511808425
9.29,-1.03685399806
9.295,-1.12616940984
9.3,-1.16283055683
9.305,-1.15471097394
9.31,-1.08950826286
9.315,-0.975588054433
9.32,-0.825252746989
9.325,-0.646129827481
9.33,-0.471189723401
9.335,-0.312488785101
9.34,-0.174209828008
9.345,-0.0723459699366
9.35,0.000730276071408
9.355,0.0455110059484
9.36,0.0617501717279
9.365,0.0617501717279
9.37,0.0250890247407
9.375,-0.027811288026
9.38,-0.109007116924
9.385,-0.218990557885
9.39,-0.361452330406
9.395,-0.532209619058
9.4,-0.703212955676
9.405,-0.870033476866
9.41,-1.00831243396
9.415,-1.10181066117
9.42,-1.15077420648
9.425,-1.14240857562
9.43,-1.08138867997
9.435,-0.967468471543
9.44,-0.812950348671
9.445,-0.642193060019
9.45,-0.471189723401
9.455,-0.312488785101
9.46,-0.18626617836
9.465,-0.0888311836825
9.47,-0.0196917051362
9.475,0.0250890247407
9.48,0.0415742384866
9.485,0.0292718401688
9.49,-0.00738930681837
9.495,-0.0684092024749
9.5,-0.157970662229
9.505,-0.275827638114
9.51,-0.426408993524
9.515,-0.593229514714
9.52,-0.764232851332
9.525,-0.914568158776
9.53,-1.02455159974
9.535,-1.09787389371
9.54,-1.11411305949
9.545,-1.08557149539
9.55,-0.99601003564
9.555,-0.878153059755
9.56,-0.719452121455
9.565,-0.552631600265
9.57,-0.389747846537
9.575,-0.255651704872
9.58,-0.137548681021
9.585,-0.0602896195851
9.59,-0.00738930681837
9.595,0.021152257279
9.6,0.016969441851
9.605,-0.0032064913903
9.61,-0.056106804157
9.615,-0.133611913559
9.62,-0.239166491127
9.625,-0.373508680757
9.63,-0.532209619058
9.635,-0.699030140247
9.64,-0.865850661437
9.645,-1.00019285107
9.65,-1.10181066117
9.655,-1.15889378937
9.66,-1.15471097394
9.665,-1.10181066117
9.67,-1.00019285107
9.675,-0.85354826312
9.68,-0.67860815904
9.685,-0.50366805496
9.69,-0.332910766308
9.695,-0.194631809216
9.7,-0.0846483682544
9.705,-0.0032064913903
9.71,0.0455110059484
9.715,0.065932987156
9.72,0.0617501717279
9.725,0.0415742384866
9.73,-0.0155088897081
9.735,-0.0927679511442
9.74,-0.206688159567
9.745,-0.349149932088
9.75,-0.51178763785
9.755,-0.68672774193
9.76,-0.857731078548
9.765,-0.99601003564
9.77,-1.09369107828
9.775,-1.14659139105
9.78,-1.14240857562
9.785,-1.08557149539
9.79,-0.979770869861
9.795,-0.833372329878
9.8,-0.66236899326
9.805,-0.487428889181
9.81,-0.33684753377
9.815,-0.198568576678
9.82,-0.100887534034
9.825,-0.0236284725979
9.83,0.021152257279
9.835,0.0415742384866
9.84,0.0332086076305
9.845,0.00491309149947
9.85,-0.0521700366953
9.855,-0.133611913559
9.86,-0.243349306555
9.865,-0.393930661965
9.87,-0.552631600265
9.875,-0.723388888917
9.88,-0.878153059755
9.885,-1.00412961853
9.89,-1.08557149539
9.895,-1.11411305949
9.9,-1.10181066117
9.905,-1.04079076552
9.91,-0.926870557094
9.915,-0.788591600001
9.92,-0.625707846273
9.925,-0.463070140511
9.93,-0.316671600529
9.935,-0.194631809216
9.94,-0.100887534034
9.945,-0.0317480554877
9.95,0.00491309149947
9.955,0.016969441851
9.96,0.00884985896118
9.965,-0.0196917051362
9.97,-0.0765287853646
9.975,-0.16190742969
9.98,-0.275827638114
9.985,-0.414352643173
9.99,-0.576990348934
9.995,-0.747747637586
10,-0.906448575886
10.005,-1.02455159974
10.01,-1.11411305949
10.015,-1.15889378937
10.02,-1.14659139105
10.025,-1.08138867997
10.03,-0.975588054433
10.035,-0.82918951445
10.04,-0.654249410371
10.045,-0.475372538829
10.05,-0.320608367991
10.055,-0.182329410898
10.06,-0.0807116007927
10.065,0.000730276071408
10.07,0.0415742384866
10.075,0.065932987156
10.08,0.0617501717279
10.085,0.0415742384866
10.09,-0.00738930681837
10.095,-0.0807116007927
10.1,-0.18626617836
10.105,-0.316671600529
10.11,-0.475372538829
10.115,-0.642193060019
10.12,-0.809013581209
10.125,-0.955412121191
10.13,-1.06514951419
10.135,-1.13035222527
10.14,-1.14240857562
10.145,-1.1059934766
10.15,-1.01643201685
10.155,-0.886272642645
10.16,-0.719452121455
10.165,-0.544512017375
10.17,-0.381628263647
10.175,-0.243349306555
10.18,-0.133611913559
10.185,-0.0479872212672
10.19,0.00491309149947
10.195,0.0373914230586
10.2,0.0415742384866
10.205,0.016969441851
10.21,-0.0236284725979
10.215,-0.100887534034
10.22,-0.198568576678
10.225,-0.32872795088
10.23,-0.479309306291
10.235,-0.646129827481
10.24,-0.812950348671
10.245,-0.947292538302
10.25,-1.05309316384
10.255,-1.1059934766
10.26,-1.11804982695
10.265,-1.07326909708
10.27,-0.992073268179
10.275,-0.861667846009
10.28,-0.707149723137
10.285,-0.536392434486
10.29,-0.381628263647
10.295,-0.243349306555
10.3,-0.137548681021
10.305,-0.0521700366953
10.31,-0.00738930681837
10.315,0.021152257279
10.32,0.016969441851
10.325,-0.0032064913903
10.33,-0.056106804157
10.335,-0.129429098131
10.34,-0.231046908237
10.345,-0.357269514978
10.35,-0.51990722074
10.355,-0.68672774193
10.36,-0.849611495658
10.365,-0.992073268179
10.37,-1.09369107828
10.375,-1.15077420648
10.38,-1.15889378937
10.385,-1.11411305949
10.39,-1.02455159974
10.395,-0.890209410107
10.4,-0.727571704345
10.405,-0.548448784837
10.41,-0.385811079075
10.415,-0.235229723665
10.42,-0.121309515242
10.425,-0.0317480554877
10.43,0.0250890247407
10.435,0.0578134042662
10.44,0.065932987156
10.445,0.0536305888381
10.45,0.00884985896118
10.455,-0.056106804157
10.46,-0.157970662229
10.465,-0.283947221003
10.47,-0.434528576414
10.475,-0.605531913032
10.48,-0.776289201684
10.485,-0.922933789632
10.49,-1.04891034841
10.495,-1.12616940984
10.5,-1.14659139105
10.505,-1.11804982695
10.51,-1.04079076552
10.515,-0.914568158776
10.52,-0.760050035904
10.525,-0.585109931824
10.53,-0.422472226062
10.535,-0.275827638114
10.54,-0.16190742969
10.545,-0.0684092024749
10.55,-0.00738930681837
10.555,0.0292718401688
10.56,0.0415742384866
10.565,0.0292718401688
10.57,-0.0113260742801
10.575,-0.0723459699366
10.58,-0.17002701258
10.585,-0.292066803893
10.59,-0.446830974732
10.595,-0.613651495922
10.6,-0.776289201684
10.605,-0.931053372522
10.61,-1.04497358095
10.615,-1.1059934766
10.62,-1.12223264238
10.625,-1.08557149539
10.63,-0.99601003564
10.635,-0.873970244327
10.64,-0.719452121455
10.645,-0.552631600265
10.65,-0.393930661965
10.655,-0.259588472334
10.66,-0.145668263911
10.665,-0.0642263870468
10.67,-0.0113260742801
10.675,0.016969441851
10.68,0.021152257279
10.685,0.00491309149947
10.69,-0.0440504538055
10.695,-0.121309515242
10.7,-0.218990557885
10.705,-0.341030349198
10.71,-0.49554847207
10.715,-0.666551808688
10.72,-0.82918951445
10.725,-0.975588054433
10.73,-1.08557149539
10.735,-1.15077420648
10.74,-1.16283055683
10.745,-1.12616940984
10.75,-1.02455159974
10.755,-0.898328992997
10.76,-0.727571704345
10.765,-0.548448784837
10.77,-0.373508680757
10.775,-0.227110140775
10.78,-0.113189932352
10.785,-0.0236284725979
10.79,0.0332086076305
10.795,0.0617501717279
10.8,0.0698697546177
10.805,0.0496938213764
10.81,0.00491309149947
10.815,-0.0602896195851
10.82,-0.16190742969
10.825,-0.283947221003
10.83,-0.434528576414
10.835,-0.605531913032
10.84,-0.772352434222
10.845,-0.922933789632
10.85,-1.03685399806
10.855,-1.11804982695
10.86,-1.14659139105
10.865,-1.11411305949
10.87,-1.04079076552
10.875,-0.914568158776
10.88,-0.751930453014
10.885,-0.580927116396
10.89,-0.414352643173
10.895,-0.263771287762
10.9,-0.149851079339
10.905,-0.0602896195851
10.91,0.000730276071408
10.915,0.0292718401688
10.92,0.0373914230586
10.925,0.0250890247407
10.93,-0.0236284725979
10.935,-0.0927679511442
10.94,-0.18626617836
10.945,-0.320608367991
10.95,-0.475372538829
10.955,-0.642193060019
10.96,-0.809013581209
10.965,-0.947292538302
10.97,-1.04891034841
10.975,-1.1059934766
10.98,-1.11411305949
10.985,-1.06933232961
10.99,-0.98789045275
10.995,-0.857731078548
11,-0.699030140247
11.005,-0.532209619058
11.01,-0.377691496185
11.015,-0.243349306555
11.02,-0.129429098131
11.025,-0.0521700366953
11.03,0.000730276071408
11.035,0.0250890247407
11.04,0.016969441851
11.045,-0.00738930681837
11.05,-0.056106804157
11.055,-0.133611913559
11.06,-0.243349306555
11.065,-0.377691496185
11.07,-0.536392434486
11.075,-0.711332538565
11.08,-0.873970244327
11.085,-1.01224920142
11.09,-1.10993024406
11.095,-1.15889378937
11.1,-1.15889378937
11.105,-1.1059934766
11.11,-1.00412961853
11.115,-0.861667846009
11.12,-0.690910557358
11.125,-0.51178763785
11.13,-0.349149932088
11.135,-0.202751392106
11.14,-0.0927679511442
11.145,-0.0113260742801
11.15,0.0373914230586
11.155,0.0698697546177
11.16,0.0698697546177
11.165,0.0415742384866
11.17,-0.00738930681837
11.175,-0.0807116007927
11.18,-0.182329410898
11.185,-0.324791183419
11.19,-0.483492121719
11.195,-0.658432225799
11.2,-0.825252746989
11.205,-0.971651286971
11.21,-1.0774519125
11.215,-1.13428899273
11.22,-1.14240857562
11.225,-1.09787389371
11.23,-1.00019285107
11.235,-0.861667846009
11.24,-0.68672774193
11.245,-0.51990722074
11.25,-0.357269514978
11.255,-0.227110140775
11.26,-0.117126699814
11.265,-0.0398676383775
11.27,0.016969441851
11.275,0.0332086076305
11.28,0.0373914230586
11.285,0.0130326743893
11.29,-0.0359308709158
11.295,-0.113189932352
11.3,-0.218990557885
11.305,-0.357269514978
11.31,-0.515970453278
11.315,-0.68672774193
11.32,-0.849611495658
11.325,-0.979770869861
11.33,-1.07326909708
11.335,-1.11411305949
11.34,-1.1059934766
11.345,-1.04079076552
11.35,-0.939172955412
11.355,-0.792528367463
11.36,-0.629890661701
11.365,-0.467006907973
11.37,-0.320608367991
11.375,-0.190448993788
11.38,-0.0969507665723
11.385,-0.0317480554877
11.39,0.00884985896118
11.395,0.021152257279
11.4,0.00884985896118
11.405,-0.0236284725979
11.41,-0.0846483682544
11.415,-0.174209828008
11.42,-0.292066803893
11.425,-0.434528576414
11.43,-0.601349097604
11.435,-0.772352434222
11.44,-0.926870557094
11.445,-1.04891034841
11.45,-1.12616940984
11.455,-1.16283055683
11.46,-1.13847180816
11.465,-1.06933232961
11.47,-0.947292538302
11.475,-0.792528367463
11.48,-0.609468680494
11.485,-0.430591808952
11.49,-0.275827638114
11.495,-0.145668263911
11.5,-0.0479872212672
11.505,0.016969441851
11.51,0.0536305888381
11.515,0.0698697546177
11.52,0.0578134042662
11.525,0.021152257279
11.53,-0.0359308709158
11.535,-0.125246282703
11.54,-0.243349306555
11.545,-0.389747846537
11.55,-0.564687950617
11.555,-0.731508471807
11.56,-0.894392225535
11.565,-1.02455159974
11.57,-1.10993024406
11.575,-1.14659139105
11.58,-1.13035222527
11.585,-1.06121274672
11.59,-0.947292538302
11.595,-0.788591600001
11.6,-0.617588263383
11.605,-0.446830974732
11.61,-0.296249619321
11.615,-0.17002701258
11.62,-0.0765287853646
11.625,-0.00738930681837
11.63,0.0292718401688
11.635,0.0415742384866
11.64,0.0292718401688
11.645,-0.0113260742801
11.65,-0.0723459699366
11.655,-0.17002701258
11.66,-0.288130036432
11.665,-0.446830974732
11.67,-0.613651495922
11.675,-0.780472017112
11.68,-0.926870557094
11.685,-1.04079076552
11.69,-1.10181066117
11.695,-1.11804982695
11.7,-1.08138867997
11.705,-0.99601003564
11.71,-0.873970244327
11.715,-0.719452121455
11.72,-0.548448784837
11.725,-0.389747846537
11.73,-0.247532121983
11.735,-0.137548681021
11.74,-0.056106804157
11.745,-0.0032064913903
11.75,0.016969441851
11.755,0.0250890247407
11.76,-0.0032064913903
11.765,-0.0521700366953
11.77,-0.125246282703
11.775,-0.235229723665
11.78,-0.365389097868
11.785,-0.524090036168
11.79,-0.699030140247
11.795,-0.861667846009
11.8,-1.00019285107
11.805,-1.10181066117
11.81,-1.15471097394
11.815,-1.15471097394
11.82,-1.10181066117
11.825,-1.00831243396
11.83,-0.861667846009
11.835,-0.690910557358
11.84,-0.51178763785
11.845,-0.33684753377
11.85,-0.198568576678
11.855,-0.0846483682544
11.86,-0.00738930681837
11.865,0.0415742384866
11.87,0.065932987156
11.875,0.065932987156
11.88,0.0415742384866
11.885,-0.0032064913903
11.89,-0.0846483682544
11.895,-0.190448993788
11.9,-0.324791183419
11.905,-0.487428889181
11.91,-0.66236899326
11.915,-0.82918951445
11.92,-0.975588054433
11.925,-1.0774519125
11.93,-1.13847180816
11.935,-1.14659139105
11.94,-1.09787389371
11.945,-0.99601003564
11.95,-0.85354826312
11.955,-0.67860815904
11.96,-0.50366805496
11.965,-0.34496711666
11.97,-0.206688159567
11.975,-0.105070349462
11.98,-0.0317480554877
11.985,0.016969441851
11.99,0.0373914230586
11.995,0.0332086076305
12,0.00491309149947
12.005,-0.0479872212672
12.01,-0.129429098131
12.015,-0.239166491127
12.02,-0.385811079075
12.025,-0.544512017375
12.03,-0.719452121455
12.035,-0.878153059755
12.04,-1.00412961853
12.045,-1.08557149539
12.05,-1.11804982695
12.055,-1.09787389371
12.06,-1.02455159974
12.065,-0.914568158776
12.07,-0.764232851332
12.075,-0.601349097604
12.08,-0.438711391842
12.085,-0.292066803893
12.09,-0.17002701258
12.095,-0.0846483682544
12.1,-0.0236284725979
12.105,0.016969441851
12.11,0.021152257279
12.115,0.00491309149947
12.12,-0.0359308709158
12.125,-0.105070349462
12.13,-0.202751392106
12.135,-0.32872795088
12.14,-0.483492121719
12.145,-0.650312642909
12.15,-0.82106993156
12.155,-0.967468471543
12.16,-1.08138867997
12.165,-1.14659139105
12.17,-1.15889378937
12.175,-1.11804982695
12.18,-1.03685399806
12.185,-0.898328992997
12.19,-0.731508471807
12.195,-0.552631600265
12.2,-0.381628263647
12.205,-0.235229723665
12.21,-0.113189932352
12.215,-0.027811288026
12.22,0.0332086076305
12.225,0.0617501717279
12.23,0.065932987156
12.235,0.0455110059484
12.24,0.00491309149947
12.245,-0.0684092024749
12.25,-0.16190742969
12.255,-0.300432434749
12.26,-0.450767742193
12.265,-0.617588263383
12.27,-0.792528367463
12.275,-0.947292538302
12.28,-1.06121274672
12.285,-1.13035222527
12.29,-1.14659139105
12.295,-1.1059934766
12.3,-1.01643201685
12.305,-0.878153059755
12.31,-0.715269306027
12.315,-0.536392434486
12.32,-0.369571913296
12.325,-0.231046908237
12.33,-0.121309515242
12.335,-0.0398676383775
12.34,0.0130326743893
12.345,0.0373914230586
12.35,0.0373914230586
12.355,0.0130326743893
12.36,-0.0398676383775
12.365,-0.121309515242
12.37,-0.231046908237
12.375,-0.373508680757
12.38,-0.532209619058
12.385,-0.703212955676
12.39,-0.865850661437
12.395,-0.99601003564
12.4,-1.08557149539
12.405,-1.11804982695
12.41,-1.10181066117
12.415,-1.03685399806
12.42,-0.926870557094
12.425,-0.776289201684
12.43,-0.605531913032
12.435,-0.446830974732
12.44,-0.300432434749
12.445,-0.174209828008
12.45,-0.0846483682544
12.455,-0.0155088897081
12.46,0.0130326743893
12.465,0.0250890247407
12.47,0.0130326743893
12.475,-0.0359308709158
12.48,-0.100887534034
12.485,-0.194631809216
12.49,-0.324791183419
12.495,-0.475372538829
12.5,-0.650312642909
12.505,-0.817133164099
12.51,-0.963531704081
12.515,-1.0774519125
12.52,-1.14240857562
12.525,-1.16283055683
12.53,-1.12223264238
12.535,-1.03685399806
12.54,-0.902511808425
12.545,-0.731508471807
12.55,-0.556568367727
12.555,-0.377691496185
12.56,-0.239166491127
12.565,-0.109007116924
12.57,-0.0236284725979
12.575,0.0332086076305
12.58,0.0617501717279
12.585,0.065932987156
12.59,0.0496938213764
12.595,0.00491309149947
12.6,-0.0723459699366
12.605,-0.174209828008
12.61,-0.308552017639
12.615,-0.463070140511
12.62,-0.638010244591
12.625,-0.809013581209
12.63,-0.959348888653
12.635,-1.06933232961
12.64,-1.13428899273
12.645,-1.14659139105
12.65,-1.10181066117
12.655,-1.00831243396
12.66,-0.865850661437
12.665,-0.703212955676
12.67,-0.524090036168
12.675,-0.369571913296
12.68,-0.231046908237
12.685,-0.117126699814
12.69,-0.0398676383775
12.695,0.00884985896118
12.7,0.0373914230586
12.705,0.0373914230586
12.71,0.016969441851
12.715,-0.0398676383775
12.72,-0.117126699814
12.725,-0.227110140775
12.73,-0.373508680757
12.735,-0.532209619058
12.74,-0.707149723137
12.745,-0.865850661437
12.75,-0.99601003564
12.755,-1.08557149539
12.76,-1.12223264238
12.765,-1.1059934766
12.77,-1.03685399806
12.775,-0.926870557094
12.78,-0.776289201684
12.785,-0.605531913032
12.79,-0.446830974732
12.795,-0.296249619321
12.8,-0.174209828008
12.805,-0.0846483682544
12.81,-0.0236284725979
12.815,0.0130326743893
12.82,0.016969441851
12.825,0.00884985896118
12.83,-0.0359308709158
12.835,-0.100887534034
12.84,-0.198568576678
12.845,-0.320608367991
12.85,-0.475372538829
12.855,-0.646129827481
12.86,-0.817133164099
12.865,-0.963531704081
12.87,-1.08138867997
12.875,-1.14240857562
12.88,-1.16283055683
12.885,-1.12223264238
12.89,-1.03267118263
12.895,-0.894392225535
12.9,-0.727571704345
12.905,-0.544512017375
12.91,-0.377691496185
12.915,-0.227110140775
12.92,-0.109007116924
12.925,-0.0196917051362
12.93,0.0332086076305
12.935,0.0617501717279
12.94,0.0698697546177
12.945,0.0455110059484
12.95,0.000730276071408
12.955,-0.0723459699366
12.96,-0.174209828008
12.965,-0.300432434749
12.97,-0.458887325083
12.975,-0.629890661701
12.98,-0.796711182891
12.985,-0.947292538302
12.99,-1.06121274672
12.995,-1.13035222527
13,-1.14240857562
13.005,-1.10181066117
13.01,-1.01224920142
13.015,-0.873970244327
13.02,-0.703212955676
13.025,-0.532209619058
13.03,-0.365389097868
13.035,-0.227110140775
13.04,-0.117126699814
13.045,-0.0359308709158
13.05,0.016969441851
13.055,0.0373914230586
13.06,0.0373914230586
13.065,0.00884985896118
13.07,-0.0440504538055
13.075,-0.125246282703
13.08,-0.235229723665
13.085,-0.377691496185
13.09,-0.536392434486
13.095,-0.707149723137
13.1,-0.873970244327
13.105,-1.00019285107
13.11,-1.08557149539
13.115,-1.12223264238
13.12,-1.1059934766
13.125,-1.03685399806
13.13,-0.926870557094
13.135,-0.776289201684
13.14,-0.609468680494
13.145,-0.446830974732
13.15,-0.296249619321
13.155,-0.174209828008
13.16,-0.0807116007927
13.165,-0.0155088897081
13.17,0.016969441851
13.175,0.021152257279
13.18,0.00491309149947
13.185,-0.0317480554877
13.19,-0.105070349462
13.195,-0.198568576678
13.2,-0.32872795088
13.205,-0.479309306291
13.21,-0.646129827481
13.215,-0.817133164099
13.22,-0.967468471543
13.225,-1.0774519125
13.23,-1.14240857562
13.235,-1.15889378937
13.24,-1.13035222527
13.245,-1.04497358095
13.25,-0.914568158776
13.255,-0.751930453014
13.26,-0.572807533506
13.265,-0.402050244855
13.27,-0.247532121983
13.275,-0.125246282703
13.28,-0.0359308709158
13.285,0.0250890247407
13.29,0.0617501717279
13.295,0.0698697546177
13.3,0.0578134042662
13.305,0.016969441851
13.31,-0.0479872212672
13.315,-0.145668263911
13.32,-0.275827638114
13.325,-0.422472226062
13.33,-0.593229514714
13.335,-0.764232851332
13.34,-0.918750974204
13.345,-1.04079076552
13.35,-1.11804982695
13.355,-1.15077420648
13.36,-1.11804982695
13.365,-1.04079076552
13.37,-0.914568158776
13.375,-0.751930453014
13.38,-0.585109931824
13.385,-0.418289410634
13.39,-0.271890870652
13.395,-0.157970662229
13.4,-0.0642263870468
13.405,-0.0032064913903
13.41,0.0332086076305
13.415,0.0415742384866
13.42,0.0250890247407
13.425,-0.0155088897081
13.43,-0.0807116007927
13.435,-0.17814659547
13.44,-0.300432434749
13.445,-0.450767742193
13.45,-0.621771078811
13.455,-0.788591600001
13.46,-0.934990139984
13.465,-1.04497358095
13.47,-1.1059934766
13.475,-1.11411305949
13.48,-1.06933232961
13.485,-0.983953685289
13.49,-0.857731078548
13.495,-0.694847324819
13.5,-0.532209619058
13.505,-0.373508680757
13.51,-0.243349306555
13.515,-0.133611913559
13.52,-0.056106804157
13.525,-0.0032064913903
13.53,0.016969441851
13.535,0.021152257279
13.54,-0.00738930681837
13.545,-0.056106804157
13.55,-0.129429098131
13.555,-0.235229723665
13.56,-0.369571913296
13.565,-0.528272851596
13.57,-0.699030140247
13.575,-0.870033476866
13.58,-1.00831243396
13.585,-1.10181066117
13.59,-1.15471097394
13.595,-1.15471097394
13.6,-1.1059934766
13.605,-1.00019285107
13.61,-0.857731078548
13.615,-0.67860815904
13.62,-0.50366805496
13.625,-0.332910766308
13.63,-0.190448993788
13.635,-0.0846483682544
13.64,-0.00738930681837
13.645,0.0415742384866
13.65,0.0698697546177
13.655,0.065932987156
13.66,0.0373914230586
13.665,-0.0113260742801
13.67,-0.0888311836825
13.675,-0.198568576678
13.68,-0.332910766308
13.685,-0.491611704609
13.69,-0.666551808688
13.695,-0.833372329878
13.7,-0.975588054433
13.705,-1.08138867997
13.71,-1.13847180816
13.715,-1.14240857562
13.72,-1.09369107828
13.725,-0.992073268179
13.73,-0.849611495658
13.735,-0.67860815904
13.74,-0.50366805496
13.745,-0.34496711666
13.75,-0.210870974995
13.755,-0.105070349462
13.76,-0.0317480554877
13.765,0.021152257279
13.77,0.0415742384866
13.775,0.0332086076305
13.78,0.00884985896118
13.785,-0.0521700366953
13.79,-0.129429098131
13.795,-0.243349306555
13.8,-0.389747846537
13.805,-0.552631600265
13.81,-0.723388888917
13.815,-0.882089827217
13.82,-1.00412961853
13.825,-1.08950826286
13.83,-1.11411305949
13.835,-1.09787389371
13.84,-1.0284883672
13.845,-0.918750974204
13.85,-0.772352434222
13.855,-0.601349097604
13.86,-0.442648159304
13.865,-0.296249619321
13.87,-0.174209828008
13.875,-0.0807116007927
13.88,-0.0196917051362
13.885,0.0130326743893
13.89,0.0250890247407
13.895,0.00884985896118
13.9,-0.0317480554877
13.905,-0.105070349462
13.91,-0.198568576678
13.915,-0.324791183419
13.92,-0.483492121719
13.925,-0.646129827481
13.93,-0.817133164099
13.935,-0.967468471543
13.94,-1.08138867997
13.945,-1.14659139105
13.95,-1.16701337226
13.955,-1.12616940984
13.96,-1.03685399806
13.965,-0.906448575886
13.97,-0.739628054696
13.975,-0.552631600265
13.98,-0.381628263647
13.985,-0.235229723665
13.99,-0.113189932352
13.995,-0.0236284725979
14,0.0332086076305
14.005,0.0617501717279
14.01,0.065932987156
14.015,0.0496938213764
14.02,0.00491309149947
14.025,-0.0642263870468
14.03,-0.16190742969
14.035,-0.292066803893
14.04,-0.450767742193
14.045,-0.621771078811
14.05,-0.792528367463
14.055,-0.943109722873
14.06,-1.06121274672
14.065,-1.13035222527
14.07,-1.14659139105
14.075,-1.11411305949
14.08,-1.02455159974
14.085,-0.886272642645
14.09,-0.723388888917
14.095,-0.548448784837
14.1,-0.385811079075
14.105,-0.243349306555
14.11,-0.129429098131
14.115,-0.0440504538055
14.12,0.00884985896118
14.125,0.0332086076305
14.13,0.0415742384866
14.135,0.016969441851
14.14,-0.027811288026
14.145,-0.100887534034
14.15,-0.202751392106
14.155,-0.33684753377
14.16,-0.49554847207
14.165,-0.66236899326
14.17,-0.82918951445
14.175,-0.963531704081
14.18,-1.06121274672
14.185,-1.11411305949
14.19,-1.10993024406
14.195,-1.05309316384
14.2,-0.955412121191
14.205,-0.817133164099
14.21,-0.658432225799
14.215,-0.487428889181
14.22,-0.33684753377
14.225,-0.206688159567
14.23,-0.109007116924
14.235,-0.0359308709158
14.24,0.00491309149947
14.245,0.021152257279
14.25,0.016969441851
14.255,-0.0196917051362
14.26,-0.0723459699366
14.265,-0.16190742969
14.27,-0.275827638114
14.275,-0.418289410634
14.28,-0.585109931824
14.285,-0.751930453014
14.29,-0.910631391314
14.295,-1.03685399806
14.3,-1.12616940984
14.305,-1.15889378937
14.31,-1.13847180816
14.315,-1.0774519125
14.32,-0.955412121191
14.325,-0.800647950353
14.33,-0.625707846273
14.335,-0.446830974732
14.34,-0.288130036432
14.345,-0.157970662229
14.35,-0.0602896195851
14.355,0.016969441851
14.36,0.0536305888381
14.365,0.0740525700458
14.37,0.0617501717279
14.375,0.0250890247407
14.38,-0.0317480554877
14.385,-0.117126699814
14.39,-0.231046908237
14.395,-0.377691496185
14.4,-0.544512017375
14.405,-0.715269306027
14.41,-0.878153059755
14.415,-1.01224920142
14.42,-1.1059934766
14.425,-1.14659139105
14.43,-1.13428899273
14.435,-1.06933232961
14.44,-0.955412121191
14.445,-0.800647950353
14.45,-0.629890661701
14.455,-0.458887325083
14.46,-0.300432434749
14.465,-0.17814659547
14.47,-0.0807116007927
14.475,-0.0113260742801
14.48,0.0292718401688
14.485,0.0415742384866
14.49,0.0292718401688
14.495,-0.0032064913903
14.5,-0.0684092024749
14.505,-0.16190742969
14.51,-0.283947221003
14.515,-0.430591808952
14.52,-0.601349097604
14.525,-0.764232851332
14.53,-0.918750974204
14.535,-1.03685399806
14.54,-1.10181066117
14.545,-1.11804982695
14.55,-1.08138867997
14.555,-1.00019285107
14.56,-0.878153059755
14.565,-0.719452121455
14.57,-0.552631600265
14.575,-0.389747846537
14.58,-0.251468889444
14.585,-0.141731496449
14.59,-0.0521700366953
14.595,-0.00738930681837
14.6,0.021152257279
14.605,0.0250890247407
14.61,-0.0032064913903
14.615,-0.056106804157
14.62,-0.129429098131
14.625,-0.239166491127
14.63,-0.369571913296
14.635,-0.524090036168
14.64,-0.699030140247
14.645,-0.861667846009
14.65,-1.00831243396
14.655,-1.1059934766
14.66,-1.15471097394
14.665,-1.15077420648
14.67,-1.09787389371
14.675,-0.99601003564
14.68,-0.849611495658
14.685,-0.674671391578
14.69,-0.491611704609
14.695,-0.332910766308
14.7,-0.190448993788
14.705,-0.0807116007927
14.71,-0.0032064913903
14.715,0.0455110059484
14.72,0.0698697546177
14.725,0.065932987156
14.73,0.0373914230586
14.735,-0.0155088897081
14.74,-0.0969507665723
14.745,-0.202751392106
14.75,-0.349149932088
14.755,-0.50366805496
14.76,-0.682790974468
14.765,-0.849611495658
14.77,-0.98789045275
14.775,-1.08950826286
14.78,-1.14240857562
14.785,-1.14240857562
14.79,-1.08138867997
14.795,-0.971651286971
14.8,-0.825252746989
14.805,-0.654249410371
14.81,-0.483492121719
14.815,-0.324791183419
14.82,-0.194631809216
14.825,-0.0927679511442
14.83,-0.0196917051362
14.835,0.021152257279
14.84,0.0415742384866
14.845,0.0332086076305
14.85,0.000730276071408
14.855,-0.056106804157
14.86,-0.145668263911
14.865,-0.259588472334
14.87,-0.402050244855
14.875,-0.572807533506
14.88,-0.739628054696
14.885,-0.898328992997
14.89,-1.02036878431
14.895,-1.09369107828
14.9,-1.12223264238
14.905,-1.08950826286
14.91,-1.01643201685
14.915,-0.898328992997
14.92,-0.743810870124
14.925,-0.568870766045
14.93,-0.410169827745
14.935,-0.263771287762
14.94,-0.153787846801
14.945,-0.0684092024749
14.95,-0.0113260742801
14.955,0.016969441851
14.96,0.021152257279
14.965,0.000730276071408
14.97,-0.0479872212672
14.975,-0.121309515242
14.98,-0.222927325347
14.985,-0.349149932088
14.99,-0.50366805496
14.995,-0.67860815904
15,-0.84542868023
15.005,-0.98789045275
15.01,-1.09369107828
15.015,-1.14659139105
15.02,-1.15889378937
15.025,-1.10993024406
15.03,-1.00831243396
15.035,-0.865850661437
15.04,-0.690910557358
15.045,-0.507850870388
15.05,-0.349149932088
15.055,-0.202751392106
15.06,-0.0888311836825
15.065,-0.00738930681837
15.07,0.0415742384866
15.075,0.065932987156
15.08,0.065932987156
15.085,0.0455110059484
15.09,-0.0032064913903
15.095,-0.0846483682544
15.1,-0.190448993788
15.105,-0.324791183419
15.11,-0.487428889181
15.115,-0.66236899326
15.12,-0.82918951445
15.125,-0.975588054433
15.13,-1.08138867997
15.135,-1.13428899273
15.14,-1.13847180816
15.145,-1.08950826286
15.15,-0.98789045275
15.155,-0.841491912768
15.16,-0.674671391578
15.165,-0.499731287498
15.17,-0.332910766308
15.175,-0.202751392106
15.18,-0.100887534034
15.185,-0.027811288026
15.19,0.021152257279
15.195,0.0415742384866
15.2,0.0373914230586
15.205,0.00491309149947
15.21,-0.056106804157
15.215,-0.137548681021
15.22,-0.259588472334
15.225,-0.397867429427
15.23,-0.564687950617
15.235,-0.735691287235
15.24,-0.894392225535
15.245,-1.01224920142
15.25,-1.09369107828
15.255,-1.11804982695
15.26,-1.09787389371
15.265,-1.01643201685
15.27,-0.898328992997
15.275,-0.743810870124
15.28,-0.568870766045
15.285,-0.410169827745
15.29,-0.267708055224
15.295,-0.153787846801
15.3,-0.0642263870468
15.305,-0.0113260742801
15.31,0.016969441851
15.315,0.021152257279
15.32,-0.0032064913903
15.325,-0.0479872212672
15.33,-0.125246282703
15.335,-0.227110140775
15.34,-0.361452330406
15.345,-0.51990722074
15.35,-0.690910557358
15.355,-0.85354826312
15.36,-0.99601003564
15.365,-1.1059934766
15.37,-1.15077420648
15.375,-1.15471097394
15.38,-1.10993024406
15.385,-1.00831243396
15.39,-0.865850661437
15.395,-0.699030140247
15.4,-0.51990722074
15.405,-0.349149932088
15.41,-0.206688159567
15.415,-0.0969507665723
15.42,-0.0155088897081
15.425,0.0373914230586
15.43,0.065932987156
15.435,0.0698697546177
15.44,0.0496938213764
15.445,0.00491309149947
15.45,-0.0723459699366
15.455,-0.174209828008
15.46,-0.304369202211
15.465,-0.463070140511
15.47,-0.629890661701
15.475,-0.800647950353
15.48,-0.951229305763
15.485,-1.06514951419
15.49,-1.12616940984
15.495,-1.14659139105
15.5,-1.1059934766
15.505,-1.02036878431
15.51,-0.886272642645
15.515,-0.727571704345
15.52,-0.552631600265
15.525,-0.389747846537
15.53,-0.255651704872
15.535,-0.141731496449
15.54,-0.056106804157
15.545,0.00491309149947
15.55,0.0332086076305
15.555,0.0415742384866
15.56,0.0250890247407
15.565,-0.0155088897081
15.57,-0.0846483682544
15.575,-0.182329410898
15.58,-0.308552017639
15.585,-0.458887325083
15.59,-0.625707846273
15.595,-0.796711182891
15.6,-0.934990139984
15.605,-1.04497358095
15.61,-1.10181066117
15.615,-1.11411305949
15.62,-1.08138867997
15.625,-0.99601003564
15.63,-0.865850661437
15.635,-0.719452121455
15.64,-0.548448784837
15.645,-0.393930661965
15.65,-0.259588472334
15.655,-0.149851079339
15.66,-0.0642263870468
15.665,-0.00738930681837
15.67,0.016969441851
15.675,0.021152257279
15.68,0.00491309149947
15.685,-0.0359308709158
15.69,-0.100887534034
15.695,-0.198568576678
15.7,-0.324791183419
15.705,-0.467006907973
15.71,-0.629890661701
15.715,-0.796711182891
15.72,-0.947292538302
15.725,-1.06121274672
15.73,-1.13847180816
15.735,-1.16283055683
15.74,-1.13428899273
15.745,-1.06514951419
15.75,-0.939172955412
15.755,-0.784408784573
15.76,-0.605531913032
15.765,-0.434528576414
15.77,-0.283947221003
15.775,-0.149851079339
15.78,-0.056106804157
15.785,0.016969441851
15.79,0.0536305888381
15.795,0.0740525700458
15.8,0.0617501717279
15.805,0.0332086076305
15.81,-0.0236284725979
15.815,-0.0969507665723
15.82,-0.206688159567
15.825,-0.34496711666
15.83,-0.50366805496
15.835,-0.67048857615
15.84,-0.833372329878
15.845,-0.967468471543
15.85,-1.07326909708
15.855,-1.13428899273
15.86,-1.14240857562
15.865,-1.09787389371
15.87,-1.00412961853
15.875,-0.873970244327
15.88,-0.711332538565
15.885,-0.536392434486
15.89,-0.381628263647
15.895,-0.239166491127
15.9,-0.129429098131
15.905,-0.0440504538055
15.91,0.00491309149947
15.915,0.0332086076305
15.92,0.0415742384866
15.925,0.0250890247407
15.93,-0.0236284725979
15.935,-0.0969507665723
15.94,-0.190448993788
15.945,-0.316671600529
15.95,-0.471189723401
15.955,-0.629890661701
15.96,-0.796711182891
15.965,-0.934990139984
15.97,-1.04497358095
15.975,-1.1059934766
15.98,-1.11804982695
15.985,-1.08138867997
15.99,-0.992073268179
15.995,-0.873970244327
16,-0.719452121455
16.005,-0.552631600265
16.01,-0.397867429427
16.015,-0.259588472334
16.02,-0.149851079339
16.025,-0.0642263870468
16.03,-0.0113260742801
16.035,0.016969441851
16.04,0.021152257279
16.045,0.00491309149947
16.05,-0.0398676383775
16.055,-0.113189932352
16.06,-0.210870974995
16.065,-0.33684753377
16.07,-0.487428889181
16.075,-0.650312642909
16.08,-0.82106993156
16.085,-0.963531704081
16.09,-1.07326909708
16.095,-1.14240857562
16.1,-1.16283055683
16.105,-1.12616940984
16.11,-1.04891034841
16.115,-0.922933789632
16.12,-0.756113268442
16.125,-0.580927116396
16.13,-0.410169827745
16.135,-0.259588472334
16.14,-0.133611913559
16.145,-0.0440504538055
16.15,0.021152257279
16.155,0.0617501717279
16.16,0.0698697546177
16.165,0.0536305888381
16.17,0.0250890247407
16.175,-0.0398676383775
16.18,-0.129429098131
16.185,-0.243349306555
16.19,-0.389747846537
16.195,-0.556568367727
16.2,-0.727571704345
16.205,-0.886272642645
16.21,-1.01643201685
16.215,-1.1059934766
16.22,-1.14659139105
16.225,-1.13428899273
16.23,-1.06933232961
16.235,-0.959348888653
16.24,-0.812950348671
16.245,-0.642193060019
16.25,-0.475372538829
16.255,-0.320608367991
16.26,-0.194631809216
16.265,-0.0927679511442
16.27,-0.0236284725979
16.275,0.0250890247407
16.28,0.0415742384866
16.285,0.0415742384866
16.29,0.0130326743893
16.295,-0.0440504538055
16.3,-0.129429098131
16.305,-0.239166491127
16.31,-0.381628263647
16.315,-0.544512017375
16.32,-0.711332538565
16.325,-0.870033476866
16.33,-0.99601003564
16.335,-1.08138867997
16.34,-1.11804982695
16.345,-1.09787389371
16.35,-1.03267118263
16.355,-0.926870557094
16.36,-0.784408784573
16.365,-0.617588263383
16.37,-0.458887325083
16.375,-0.308552017639
16.38,-0.190448993788
16.385,-0.0888311836825
16.39,-0.0317480554877
16.395,0.00884985896118
16.4,0.0292718401688
16.405,0.00884985896118
16.41,-0.0236284725979
16.415,-0.0846483682544
16.42,-0.17002701258
16.425,-0.288130036432
16.43,-0.430591808952
16.435,-0.593229514714
16.44,-0.760050035904
16.445,-0.918750974204
16.45,-1.04079076552
16.455,-1.13035222527
16.46,-1.16283055683
16.465,-1.13847180816
16.47,-1.07326909708
16.475,-0.955412121191
16.48,-0.800647950353
16.485,-0.625707846273
16.49,-0.450767742193
16.495,-0.288130036432
16.5,-0.16190742969
16.505,-0.0642263870468
16.51,0.00884985896118
16.515,0.0536305888381
16.52,0.0698697546177
16.525,0.0617501717279
16.53,0.0292718401688
16.535,-0.0236284725979
16.54,-0.105070349462
16.545,-0.214807742457
16.55,-0.357269514978
16.555,-0.51990722074
16.56,-0.690910557358
16.565,-0.849611495658
16.57,-0.992073268179
16.575,-1.09369107828
16.58,-1.14659139105
16.585,-1.14240857562
16.59,-1.08557149539
16.595,-0.983953685289
16.6,-0.83730909734
16.605,-0.674671391578
16.61,-0.499731287498
16.615,-0.341030349198
16.62,-0.210870974995
16.625,-0.105070349462
16.63,-0.0317480554877
16.635,0.016969441851
16.64,0.0373914230586
16.645,0.0415742384866
16.65,0.0130326743893
16.655,-0.0359308709158
16.66,-0.113189932352
16.665,-0.218990557885
16.67,-0.349149932088
16.675,-0.51178763785
16.68,-0.67860815904
16.685,-0.83730909734
16.69,-0.975588054433
16.695,-1.06514951419
16.7,-1.11411305949
16.705,-1.10993024406
16.71,-1.06121274672
16.715,-0.963531704081
16.72,-0.82918951445
16.725,-0.67048857615
16.73,-0.50366805496
16.735,-0.357269514978
16.74,-0.227110140775
16.745,-0.121309515242
16.75,-0.0479872212672
16.755,0.000730276071408
16.76,0.016969441851
16.765,0.016969441851
16.77,-0.00738930681837
16.775,-0.0602896195851
16.78,-0.133611913559
16.785,-0.243349306555
16.79,-0.373508680757
16.795,-0.528272851596
16.8,-0.699030140247
16.805,-0.865850661437
16.81,-1.00019285107
16.815,-1.10181066117
16.82,-1.15471097394
16.825,-1.15889378937
16.83,-1.10181066117
16.835,-1.00831243396
16.84,-0.873970244327
16.845,-0.707149723137
16.85,-0.528272851596
16.855,-0.361452330406
16.86,-0.214807742457
16.865,-0.100887534034
16.87,-0.0155088897081
16.875,0.0332086076305
16.88,0.065932987156
16.885,0.0698697546177
16.89,0.0536305888381
16.895,0.00884985896118
16.9,-0.056106804157
16.905,-0.16190742969
16.91,-0.283947221003
16.915,-0.438711391842
16.92,-0.609468680494
16.925,-0.780472017112
16.93,-0.931053372522
16.935,-1.05309316384
16.94,-1.12616940984
16.945,-1.14240857562
16.95,-1.11411305949
16.955,-1.04079076552
16.96,-0.914568158776
16.965,-0.751930453014
16.97,-0.585109931824
16.975,-0.418289410634
16.98,-0.275827638114
16.985,-0.153787846801
16.99,-0.0642263870468
16.995,-0.00738930681837
17,0.0292718401688
17.005,0.0373914230586
17.01,0.0332086076305
17.015,-0.00738930681837
17.02,-0.0684092024749
17.025,-0.166090245119
17.03,-0.288130036432
17.035,-0.434528576414
17.04,-0.601349097604
17.045,-0.764232851332
17.05,-0.918750974204
17.055,-1.03267118263
17.06,-1.09787389371
17.065,-1.11804982695
17.07,-1.08557149539
17.075,-1.00412961853
17.08,-0.886272642645
17.085,-0.731508471807
17.09,-0.568870766045
17.095,-0.405987012316
17.1,-0.271890870652
17.105,-0.153787846801
17.11,-0.0723459699366
17.115,-0.0113260742801
17.12,0.016969441851
17.125,0.021152257279
17.13,0.00491309149947
17.135,-0.0359308709158
17.14,-0.105070349462
17.145,-0.202751392106
17.15,-0.32872795088
17.155,-0.475372538829
17.16,-0.642193060019
17.165,-0.809013581209
17.17,-0.955412121191
17.175,-1.06933232961
17.18,-1.14240857562
17.185,-1.15889378937
17.19,-1.12616940984
17.195,-1.04891034841
17.2,-0.918750974204
17.205,-0.760050035904
17.21,-0.576990348934
17.215,-0.410169827745
17.22,-0.259588472334
17.225,-0.133611913559
17.23,-0.0398676383775
17.235,0.0250890247407
17.24,0.0617501717279
17.245,0.0740525700458
17.25,0.0536305888381
17.255,0.021152257279
17.26,-0.0398676383775
17.265,-0.129429098131
17.27,-0.243349306555
17.275,-0.389747846537
17.28,-0.556568367727
17.285,-0.727571704345
17.29,-0.882089827217
17.295,-1.01643201685
17.3,-1.1059934766
17.305,-1.14240857562
17.31,-1.13035222527
17.315,-1.06933232961
17.32,-0.951229305763
17.325,-0.800647950353
17.33,-0.629890661701
17.335,-0.463070140511
17.34,-0.312488785101
17.345,-0.18626617836
17.35,-0.0846483682544
17.355,-0.0196917051362
17.36,0.021152257279
17.365,0.0415742384866
17.37,0.0332086076305
17.375,0.000730276071408
17.38,-0.056106804157
17.385,-0.141731496449
17.39,-0.251468889444
17.395,-0.393930661965
17.4,-0.560751183155
17.405,-0.727571704345
17.41,-0.882089827217
17.415,-1.00412961853
17.42,-1.08557149539
17.425,-1.11804982695
17.43,-1.09787389371
17.435,-1.03267118263
17.44,-0.931053372522
17.445,-0.788591600001
17.45,-0.625707846273
17.455,-0.463070140511
17.46,-0.312488785101
17.465,-0.190448993788
17.47,-0.0969507665723
17.475,-0.0317480554877
17.48,0.00491309149947
17.485,0.0292718401688
17.49,0.016969441851
17.495,-0.0155088897081
17.5,-0.0807116007927
17.505,-0.16190742969
17.51,-0.280010453542
17.515,-0.418289410634
17.52,-0.576990348934
17.525,-0.743810870124
17.53,-0.902511808425
17.535,-1.02455159974
17.54,-1.11804982695
17.545,-1.16283055683
17.55,-1.14659139105
17.555,-1.08557149539
17.56,-0.979770869861
17.565,-0.82918951445
17.57,-0.658432225799
17.575,-0.479309306291
17.58,-0.324791183419
17.585,-0.18626617836
17.59,-0.0807116007927
17.595,-0.0032064913903
17.6,0.0455110059484
17.605,0.065932987156
17.61,0.065932987156
17.615,0.0415742384866
17.62,-0.00738930681837
17.625,-0.0807116007927
17.63,-0.190448993788
17.635,-0.324791183419
17.64,-0.479309306291
17.645,-0.654249410371
17.65,-0.82106993156
17.655,-0.967468471543
17.66,-1.07326909708
17.665,-1.13035222527
17.67,-1.14240857562
17.675,-1.10181066117
17.68,-1.00831243396
17.685,-0.870033476866
17.69,-0.711332538565
17.695,-0.536392434486
17.7,-0.381628263647
17.705,-0.243349306555
17.71,-0.129429098131
17.715,-0.0440504538055
17.72,0.00491309149947
17.725,0.0332086076305
17.73,0.0373914230586
17.735,0.021152257279
17.74,-0.0196917051362
17.745,-0.0927679511442
17.75,-0.194631809216
17.755,-0.320608367991
17.76,-0.479309306291
17.765,-0.646129827481
17.77,-0.809013581209
17.775,-0.951229305763
17.78,-1.0570299313
17.785,-1.1059934766
17.79,-1.11411305949
17.795,-1.06933232961
17.8,-0.975588054433
17.805,-0.849611495658
17.81,-0.690910557358
17.815,-0.524090036168
17.82,-0.369571913296
17.825,-0.235229723665
17.83,-0.129429098131
17.835,-0.0521700366953
17.84,-0.0032064913903
17.845,0.021152257279
17.85,0.021152257279
17.855,-0.0032064913903
17.86,-0.0521700366953
17.865,-0.125246282703
17.87,-0.231046908237
17.875,-0.361452330406
17.88,-0.51990722074
17.885,-0.690910557358
17.89,-0.85354826312
17.895,-0.992073268179
17.9,-1.09787389371
17.905,-1.15077420648
17.91,-1.15889378937
17.915,-1.11411305949
17.92,-1.01643201685
17.925,-0.878153059755
17.93,-0.711332538565
17.935,-0.528272851596
17.94,-0.361452330406
17.945,-0.214807742457
17.95,-0.105070349462
17.955,-0.0155088897081
17.96,0.0332086076305
17.965,0.065932987156
17.97,0.0698697546177
17.975,0.0496938213764
17.98,0.00491309149947
17.985,-0.0642263870468
17.99,-0.16190742969
17.995,-0.288130036432
18,-0.442648159304
18.005,-0.605531913032
18.01,-0.776289201684
18.015,-0.926870557094
18.02,-1.05309316384
18.025,-1.12223264238
18.03,-1.14659139105
18.035,-1.11411305949
18.04,-1.03685399806
18.045,-0.910631391314
18.05,-0.751930453014
18.055,-0.580927116396
18.06,-0.414352643173
18.065,-0.267708055224
18.07,-0.149851079339
18.075,-0.0642263870468
18.08,0.000730276071408
18.085,0.0292718401688
18.09,0.0415742384866
18.095,0.0292718401688
18.1,-0.0155088897081
18.105,-0.0846483682544
18.11,-0.182329410898
18.115,-0.308552017639
18.12,-0.454950557621
18.125,-0.625707846273
18.13,-0.788591600001
18.135,-0.934990139984
18.14,-1.04079076552
18.145,-1.10181066117
18.15,-1.11411305949
18.155,-1.0774519125
18.16,-0.992073268179
18.165,-0.870033476866
18.17,-0.711332538565
18.175,-0.544512017375
18.18,-0.389747846537
18.185,-0.251468889444
18.19,-0.137548681021
18.195,-0.056106804157
18.2,-0.00738930681837
18.205,0.016969441851
18.21,0.021152257279
18.215,0.000730276071408
18.22,-0.0521700366953
18.225,-0.125246282703
18.23,-0.231046908237
18.235,-0.361452330406
18.24,-0.515970453278
18.245,-0.690910557358
18.25,-0.85354826312
18.255,-0.992073268179
18.26,-1.09787389371
18.265,-1.15471097394
18.27,-1.15889378937
18.275,-1.10993024406
18.28,-1.01643201685
18.285,-0.873970244327
18.29,-0.707149723137
18.295,-0.528272851596
18.3,-0.357269514978
18.305,-0.214807742457
18.31,-0.100887534034
18.315,-0.0196917051362
18.32,0.0332086076305
18.325,0.065932987156
18.33,0.0698697546177
18.335,0.0496938213764
18.34,0.000730276071408
18.345,-0.0723459699366
18.35,-0.174209828008
18.355,-0.304369202211
18.36,-0.463070140511
18.365,-0.629890661701
18.37,-0.800647950353
18.375,-0.951229305763
18.38,-1.06514951419
18.385,-1.13035222527
18.39,-1.14659139105
18.395,-1.10993024406
18.4,-1.02036878431
18.405,-0.886272642645
18.41,-0.719452121455
18.415,-0.548448784837
18.42,-0.389747846537
18.425,-0.243349306555
18.43,-0.133611913559
18.435,-0.0479872212672
18.44,0.00491309149947
18.445,0.0373914230586
18.45,0.0415742384866
18.455,0.016969441851
18.46,-0.027811288026
18.465,-0.0969507665723
18.47,-0.198568576678
18.475,-0.32872795088
18.48,-0.487428889181
18.485,-0.654249410371
18.49,-0.82106993156
18.495,-0.955412121191
18.5,-1.06121274672
18.505,-1.10993024406
18.51,-1.11411305949
18.515,-1.0570299313
18.52,-0.959348888653
18.525,-0.825252746989
18.53,-0.666551808688
18.535,-0.50366805496
18.54,-0.35308669955
18.545,-0.218990557885
18.55,-0.117126699814
18.555,-0.0440504538055
18.56,0.000730276071408
18.565,0.021152257279
18.57,0.016969441851
18.575,-0.0155088897081
18.58,-0.0723459699366
18.585,-0.149851079339
18.59,-0.263771287762
18.595,-0.402050244855
18.6,-0.564687950617
18.605,-0.735691287235
18.61,-0.894392225535
18.615,-1.02455159974
18.62,-1.12223264238
18.625,-1.15889378937
18.63,-1.14659139105
18.635,-1.08557149539
18.64,-0.975588054433
18.645,-0.825252746989
18.65,-0.642193060019
18.655,-0.467006907973
18.66,-0.308552017639
18.665,-0.174209828008
18.67,-0.0723459699366
18.675,0.000730276071408
18.68,0.0496938213764
18.685,0.065932987156
18.69,0.0617501717279
18.695,0.0332086076305
18.7,-0.0236284725979
18.705,-0.100887534034
18.71,-0.214807742457
18.715,-0.35308669955
18.72,-0.51990722074
18.725,-0.690910557358
18.73,-0.85354826312
18.735,-0.99601003564
18.74,-1.08950826286
18.745,-1.14240857562
18.75,-1.13847180816
18.755,-1.08557149539
18.76,-0.979770869861
18.765,-0.833372329878
18.77,-0.66236899326
18.775,-0.491611704609
18.78,-0.32872795088
18.785,-0.198568576678
18.79,-0.0969507665723
18.795,-0.027811288026
18.8,0.021152257279
18.805,0.0373914230586
18.81,0.0332086076305
18.815,0.000730276071408
18.82,-0.0521700366953
18.825,-0.137548681021
18.83,-0.251468889444
18.835,-0.393930661965
18.84,-0.560751183155
18.845,-0.727571704345
18.85,-0.886272642645
18.855,-1.00831243396
18.86,-1.08950826286
18.865,-1.11804982695
18.87,-1.09369107828
18.875,-1.02455159974
18.88,-0.918750974204
18.885,-0.772352434222
18.89,-0.605531913032
18.895,-0.438711391842
18.9,-0.296249619321
18.905,-0.174209828008
18.91,-0.0846483682544
18.915,-0.0236284725979
18.92,0.016969441851
18.925,0.021152257279
18.93,0.00491309149947
18.935,-0.0317480554877
18.94,-0.100887534034
18.945,-0.198568576678
18.95,-0.324791183419
18.955,-0.471189723401
18.96,-0.642193060019
18.965,-0.809013581209
18.97,-0.959348888653
18.975,-1.0774519125
18.98,-1.14659139105
18.985,-1.16283055683
18.99,-1.13035222527
18.995,-1.04497358095
19,-0.918750974204
19.005,-0.751930453014
19.01,-0.576990348934
19.015,-0.405987012316
19.02,-0.255651704872
19.025,-0.133611913559
19.03,-0.0398676383775
19.035,0.021152257279
19.04,0.0617501717279
19.045,0.0698697546177
19.05,0.0578134042662
19.055,0.016969441851
19.06,-0.0479872212672
19.065,-0.137548681021
19.07,-0.263771287762
19.075,-0.414352643173
19.08,-0.585109931824
19.085,-0.760050035904
19.09,-0.910631391314
19.095,-1.03685399806
19.1,-1.12223264238
19.105,-1.14659139105
19.11,-1.12223264238
19.115,-1.05309316384
19.12,-0.931053372522
19.125,-0.772352434222
19.13,-0.597412330142
19.135,-0.434528576414
19.14,-0.283947221003
19.145,-0.166090245119
19.15,-0.0723459699366
19.155,-0.0113260742801
19.16,0.0250890247407
19.165,0.0415742384866
19.17,0.0250890247407
19.175,-0.00738930681837
19.18,-0.0684092024749
19.185,-0.16190742969
19.19,-0.283947221003
19.195,-0.434528576414
19.2,-0.601349097604
19.205,-0.764232851332
19.21,-0.918750974204
19.215,-1.03267118263
19.22,-1.1059934766
19.225,-1.11804982695
19.23,-1.08138867997
19.235,-1.00412961853
19.24,-0.882089827217
19.245,-0.727571704345
19.25,-0.560751183155
19.255,-0.402050244855
19.26,-0.263771287762
19.265,-0.149851079339
19.27,-0.0684092024749
19.275,-0.0113260742801
19.28,0.016969441851
19.285,0.021152257279
19.29,0.000730276071408
19.295,-0.0440504538055
19.3,-0.117126699814
19.305,-0.218990557885
19.31,-0.349149932088
19.315,-0.50366805496
19.32,-0.674671391578
19.325,-0.83730909734
19.33,-0.983953685289
19.335,-1.08950826286
19.34,-1.15077420648
19.345,-1.15889378937
19.35,-1.11804982695
19.355,-1.02455159974
19.36,-0.890209410107
19.365,-0.719452121455
19.37,-0.536392434486
19.375,-0.369571913296
19.38,-0.222927325347
19.385,-0.109007116924
19.39,-0.0236284725979
19.395,0.0373914230586
19.4,0.0617501717279
19.405,0.065932987156
19.41,0.0496938213764
19.415,0.000730276071408
19.42,-0.0684092024749
19.425,-0.17002701258
19.43,-0.296249619321
19.435,-0.450767742193
19.44,-0.625707846273
19.445,-0.788591600001
19.45,-0.943109722873
19.455,-1.0570299313
19.46,-1.13035222527
19.465,-1.14659139105
19.47,-1.10993024406
19.475,-1.02455159974
19.48,-0.890209410107
19.485,-0.723388888917
19.49,-0.552631600265
19.495,-0.389747846537
19.5,-0.243349306555
19.505,-0.133611913559
19.51,-0.0479872212672
19.515,0.00884985896118
19.52,0.0373914230586
19.525,0.0373914230586
19.53,0.021152257279
19.535,-0.027811288026
19.54,-0.109007116924
19.545,-0.210870974995
19.55,-0.34496711666
19.555,-0.499731287498
19.56,-0.674671391578
19.565,-0.833372329878
19.57,-0.967468471543
19.575,-1.06933232961
19.58,-1.11411305949
19.585,-1.10993024406
19.59,-1.0570299313
19.595,-0.963531704081
19.6,-0.825252746989
19.605,-0.66236899326
19.61,-0.49554847207
19.615,-0.341030349198
19.62,-0.214807742457
19.625,-0.113189932352
19.63,-0.0359308709158
19.635,0.00884985896118
19.64,0.021152257279
19.645,0.016969441851
19.65,-0.0155088897081
19.655,-0.0723459699366
19.66,-0.157970662229
19.665,-0.275827638114
19.67,-0.418289410634
19.675,-0.580927116396
19.68,-0.751930453014
19.685,-0.910631391314
19.69,-1.03685399806
19.695,-1.12223264238
19.7,-1.16283055683
19.705,-1.15077420648
19.71,-1.08138867997
19.715,-0.967468471543
19.72,-0.812950348671
19.725,-0.633827429163
19.73,-0.463070140511
19.735,-0.304369202211
19.74,-0.17002701258
19.745,-0.0684092024749
19.75,0.00491309149947
19.755,0.0496938213764
19.76,0.065932987156
19.765,0.0617501717279
19.77,0.0332086076305
19.775,-0.0236284725979
19.78,-0.113189932352
19.785,-0.227110140775
19.79,-0.365389097868
19.795,-0.536392434486
19.8,-0.707149723137
19.805,-0.870033476866
19.81,-1.00831243396
19.815,-1.10181066117
19.82,-1.14659139105
19.825,-1.13428899273
19.83,-1.07326909708
19.835,-0.963531704081
19.84,-0.812950348671
19.845,-0.642193060019
19.85,-0.471189723401
19.855,-0.316671600529
19.86,-0.190448993788
19.865,-0.0927679511442
19.87,-0.0196917051362
19.875,0.0250890247407
19.88,0.0332086076305
19.885,0.0332086076305
19.89,0.000730276071408
19.895,-0.056106804157
19.9,-0.145668263911
19.905,-0.259588472334
19.91,-0.405987012316
19.915,-0.572807533506
19.92,-0.739628054696
19.925,-0.894392225535
19.93,-1.02036878431
19.935,-1.09369107828
19.94,-1.12223264238
19.945,-1.09369107828
19.95,-1.01643201685
19.955,-0.898328992997
19.96,-0.747747637586
19.965,-0.576990348934
19.97,-0.422472226062
19.975,-0.275827638114
19.98,-0.16190742969
19.985,-0.0723459699366
19.99,-0.0155088897081
19.995,0.0130326743893
20,0.021152257279
20.005,0.000730276071408
20.01,-0.0359308709158
20.015,-0.113189932352
20.02,-0.206688159567
20.025,-0.332910766308
20.03,-0.487428889181
20.035,-0.658432225799
20.04,-0.825252746989
20.045,-0.971651286971
20.05,-1.08138867997
20.055,-1.15077420648
20.06,-1.16283055683
20.065,-1.11804982695
20.07,-1.02455159974
20.075,-0.890209410107
20.08,-0.723388888917
20.085,-0.536392434486
20.09,-0.365389097868
20.095,-0.222927325347
20.1,-0.105070349462
20.105,-0.0196917051362
20.11,0.0373914230586
20.115,0.065932987156
20.12,0.065932987156
20.125,0.0496938213764
20.13,0.000730276071408
20.135,-0.0684092024749
20.14,-0.17002701258
20.145,-0.300432434749
20.15,-0.454950557621
20.155,-0.625707846273
20.16,-0.796711182891
20.165,-0.947292538302
20.17,-1.06514951419
20.175,-1.13035222527
20.18,-1.15077420648
20.185,-1.11411305949
20.19,-1.0284883672
20.195,-0.890209410107
20.2,-0.727571704345
20.205,-0.552631600265
20.21,-0.385811079075
20.215,-0.239166491127
20.22,-0.129429098131
20.225,-0.0479872212672
20.23,0.00884985896118
20.235,0.0332086076305
20.24,0.0373914230586
20.245,0.0130326743893
20.25,-0.0398676383775
20.255,-0.117126699814
20.26,-0.222927325347
20.265,-0.361452330406
20.27,-0.51990722074
20.275,-0.690910557358
20.28,-0.85354826312
20.285,-0.983953685289
20.29,-1.07326909708
20.295,-1.11411305949
20.3,-1.1059934766
20.305,-1.04079076552
20.31,-0.934990139984
20.315,-0.796711182891
20.32,-0.629890661701
20.325,-0.467006907973
20.33,-0.320608367991
20.335,-0.190448993788
20.34,-0.0969507665723
20.345,-0.027811288026
20.35,0.00884985896118
20.355,0.021152257279
20.36,0.00884985896118
20.365,-0.027811288026
20.37,-0.0888311836825
20.375,-0.182329410898
20.38,-0.300432434749
20.385,-0.454950557621
20.39,-0.621771078811
20.395,-0.792528367463
20.4,-0.951229305763
20.405,-1.06933232961
20.41,-1.14659139105
20.415,-1.16701337226
20.42,-1.13847180816
20.425,-1.05309316384
20.43,-0.922933789632
20.435,-0.756113268442
20.44,-0.576990348934
20.445,-0.405987012316
20.45,-0.251468889444
20.455,-0.129429098131
20.46,-0.0398676383775
20.465,0.0250890247407
20.47,0.0578134042662
20.475,0.065932987156
20.48,0.0578134042662
20.485,0.0130326743893
20.49,-0.0479872212672
20.495,-0.145668263911
20.5,-0.271890870652
20.505,-0.418289410634
20.51,-0.593229514714
20.515,-0.764232851332
20.52,-0.922933789632
20.525,-1.04497358095
20.53,-1.12223264238
20.535,-1.15077420648
20.54,-1.12223264238
20.545,-1.04497358095
20.55,-0.914568158776
20.555,-0.751930453014
20.56,-0.576990348934
20.565,-0.402050244855
20.57,-0.263771287762
20.575,-0.141731496449
20.58,-0.056106804157
20.585,0.00491309149947
20.59,0.0332086076305
20.595,0.0373914230586
20.6,0.0250890247407
20.605,-0.027811288026
20.61,-0.0927679511442
20.615,-0.194631809216
20.62,-0.324791183419
20.625,-0.487428889181
20.63,-0.650312642909
20.635,-0.82106993156
20.64,-0.955412121191
20.645,-1.0570299313
20.65,-1.1059934766
20.655,-1.1059934766
20.66,-1.0570299313
20.665,-0.955412121191
20.67,-0.82106993156
20.675,-0.658432225799
20.68,-0.491611704609
20.685,-0.33684753377
20.69,-0.206688159567
20.695,-0.109007116924
20.7,-0.0398676383775
20.705,0.00491309149947
20.71,0.021152257279
20.715,0.0130326743893
20.72,-0.0236284725979
20.725,-0.0765287853646
20.73,-0.166090245119
20.735,-0.288130036432
20.74,-0.434528576414
20.745,-0.601349097604
20.75,-0.776289201684
20.755,-0.931053372522
20.76,-1.05309316384
20.765,-1.13428899273
20.77,-1.16701337226
20.775,-1.13847180816
20.78,-1.06121274672
20.785,-0.939172955412
20.79,-0.780472017112
20.795,-0.597412330142
20.8,-0.422472226062
20.805,-0.267708055224
20.81,-0.137548681021
20.815,-0.0479872212672
20.82,0.021152257279
20.825,0.0578134042662
20.83,0.0698697546177
20.835,0.0536305888381
20.84,0.016969441851
20.845,-0.0479872212672
20.85,-0.141731496449
20.855,-0.267708055224
20.86,-0.418289410634
20.865,-0.589292747252
20.87,-0.764232851332
20.875,-0.918750974204
20.88,-1.04497358095
20.885,-1.12223264238
20.89,-1.15471097394
20.895,-1.13035222527
20.9,-1.04497358095
20.905,-0.914568158776
20.91,-0.751930453014
20.915,-0.576990348934
20.92,-0.410169827745
20.925,-0.259588472334
20.93,-0.145668263911
20.935,-0.056106804157
20.94,0.000730276071408
20.945,0.0332086076305
20.95,0.0415742384866
20.955,0.016969441851
20.96,-0.0236284725979
20.965,-0.0969507665723
20.97,-0.198568576678
20.975,-0.332910766308
20.98,-0.487428889181
20.985,-0.658432225799
20.99,-0.825252746989
20.995,-0.963531704081
21,-1.06514951419
21.005,-1.10993024406
21.01,-1.1059934766
21.015,-1.0570299313
21.02,-0.955412121191
21.025,-0.817133164099
21.03,-0.646129827481
21.035,-0.483492121719
21.04,-0.32872795088
21.045,-0.198568576678
21.05,-0.100887534034
21.055,-0.0317480554877
21.06,0.00884985896118
21.065,0.021152257279
21.07,0.00884985896118
21.075,-0.0236284725979
21.08,-0.0807116007927
21.085,-0.17814659547
21.09,-0.300432434749
21.095,-0.442648159304
21.1,-0.613651495922
21.105,-0.780472017112
21.11,-0.939172955412
21.115,-1.06121274672
21.12,-1.13428899273
21.125,-1.15889378937
21.13,-1.13035222527
21.135,-1.05309316384
21.14,-0.926870557094
21.145,-0.760050035904
21.15,-0.580927116396
21.155,-0.405987012316
21.16,-0.251468889444
21.165,-0.129429098131
21.17,-0.0359308709158
21.175,0.021152257279
21.18,0.0617501717279
21.185,0.065932987156
21.19,0.0536305888381
21.195,0.00884985896118
21.2,-0.056106804157
21.205,-0.157970662229
21.21,-0.283947221003
21.215,-0.438711391842
21.22,-0.609468680494
21.225,-0.784408784573
21.23,-0.934990139984
21.235,-1.0570299313
21.24,-1.13035222527
21.245,-1.15077420648
21.25,-1.11411305949
21.255,-1.03267118263
21.26,-0.898328992997
21.265,-0.727571704345
21.27,-0.556568367727
21.275,-0.389747846537
21.28,-0.251468889444
21.285,-0.133611913559
21.29,-0.0479872212672
21.295,0.00491309149947
21.3,0.0332086076305
21.305,0.0373914230586
21.31,0.021152257279
21.315,-0.0236284725979
21.32,-0.100887534034
21.325,-0.206688159567
21.33,-0.34496711666
21.335,-0.50366805496
21.34,-0.674671391578
21.345,-0.841491912768
21.35,-0.975588054433
21.355,-1.07326909708
21.36,-1.11804982695
21.365,-1.10993024406
21.37,-1.05309316384
21.375,-0.947292538302
21.38,-0.809013581209
21.385,-0.638010244591
21.39,-0.471189723401
21.395,-0.324791183419
21.4,-0.194631809216
21.405,-0.0969507665723
21.41,-0.0317480554877
21.415,0.00884985896118
21.42,0.021152257279
21.425,0.016969441851
21.43,-0.027811288026
21.435,-0.0888311836825
21.44,-0.182329410898
21.445,-0.300432434749
21.45,-0.450767742193
21.455,-0.613651495922
21.46,-0.788591600001
21.465,-0.943109722873
21.47,-1.0570299313
21.475,-1.13428899273
21.48,-1.15471097394
21.485,-1.12616940984
21.49,-1.04497358095
21.495,-0.918750974204
21.5,-0.760050035904
21.505,-0.576990348934
21.51,-0.402050244855
21.515,-0.251468889444
21.52,-0.129429098131
21.525,-0.0359308709158
21.53,0.0250890247407
21.535,0.0617501717279
21.54,0.0698697546177
21.545,0.0496938213764
21.55,0.0130326743893
21.555,-0.0521700366953
21.56,-0.149851079339
21.565,-0.280010453542
21.57,-0.422472226062
21.575,-0.597412330142
21.58,-0.768169618794
21.585,-0.922933789632
21.59,-1.04497358095
21.595,-1.12223264238
21.6,-1.14659139105
21.605,-1.11411305949
21.61,-1.03267118263
21.615,-0.898328992997
21.62,-0.731508471807
21.625,-0.556568367727
21.63,-0.393930661965
21.635,-0.247532121983
21.64,-0.129429098131
21.645,-0.0440504538055
21.65,0.00491309149947
21.655,0.0373914230586
21.66,0.0415742384866
21.665,0.016969441851
21.67,-0.027811288026
21.675,-0.105070349462
21.68,-0.210870974995
21.685,-0.34496711666
21.69,-0.50366805496
21.695,-0.674671391578
21.7,-0.841491912768
21.705,-0.979770869861
21.71,-1.06933232961
21.715,-1.12223264238
21.72,-1.10993024406
21.725,-1.05309316384
21.73,-0.951229305763
21.735,-0.809013581209
21.74,-0.646129827481
21.745,-0.471189723401
21.75,-0.324791183419
21.755,-0.194631809216
21.76,-0.0969507665723
21.765,-0.027811288026
21.77,0.00884985896118
21.775,0.021152257279
21.78,0.0130326743893
21.785,-0.027811288026
21.79,-0.0888311836825
21.795,-0.18626617836
21.8,-0.304369202211
21.805,-0.450767742193
21.81,-0.621771078811
21.815,-0.788591600001
21.82,-0.947292538302
21.825,-1.06121274672
21.83,-1.13428899273
21.835,-1.16283055683
21.84,-1.13035222527
21.845,-1.05309316384
21.85,-0.931053372522
21.855,-0.764232851332
21.86,-0.585109931824
21.865,-0.410169827745
21.87,-0.255651704872
21.875,-0.137548681021
21.88,-0.0398676383775
21.885,0.021152257279
21.89,0.065932987156
21.895,0.0698697546177
21.9,0.0536305888381
21.905,0.016969441851
21.91,-0.056106804157
21.915,-0.149851079339
21.92,-0.271890870652
21.925,-0.426408993524
21.93,-0.601349097604
21.935,-0.772352434222
21.94,-0.922933789632
21.945,-1.04891034841
21.95,-1.12223264238
21.955,-1.14659139105
21.96,-1.11411305949
21.965,-1.03267118263
21.97,-0.898328992997
21.975,-0.739628054696
21.98,-0.564687950617
21.985,-0.397867429427
21.99,-0.259588472334
21.995,-0.141731496449
22,-0.056106804157
22.005,0.000730276071408
22.01,0.0373914230586
22.015,0.0415742384866
22.02,0.0250890247407
22.025,-0.0196917051362
22.03,-0.0888311836825
22.035,-0.194631809216
22.04,-0.32872795088
22.045,-0.487428889181
22.05,-0.654249410371
22.055,-0.82918951445
22.06,-0.967468471543
22.065,-1.06933232961
22.07,-1.11804982695
22.075,-1.11804982695
22.08,-1.0570299313
22.085,-0.955412121191
22.09,-0.812950348671
22.095,-0.650312642909
22.1,-0.479309306291
22.105,-0.32872795088
22.11,-0.198568576678
22.115,-0.100887534034
22.12,-0.0317480554877
22.125,0.00884985896118
22.13,0.0250890247407
22.135,0.016969441851
22.14,-0.0196917051362
22.145,-0.0765287853646
22.15,-0.166090245119
22.155,-0.283947221003
22.16,-0.426408993524
22.165,-0.589292747252
22.17,-0.760050035904
22.175,-0.914568158776
22.18,-1.04079076552
22.185,-1.12616940984
22.19,-1.16283055683
22.195,-1.14659139105
22.2,-1.0774519125
22.205,-0.959348888653
22.21,-0.804830765781
22.215,-0.629890661701
22.22,-0.446830974732
22.225,-0.292066803893
22.23,-0.16190742969
22.235,-0.056106804157
22.24,0.00884985896118
22.245,0.0536305888381
22.25,0.065932987156
22.255,0.0617501717279
22.26,0.0292718401688
22.265,-0.0236284725979
22.27,-0.113189932352
22.275,-0.227110140775
22.28,-0.365389097868
22.285,-0.528272851596
22.29,-0.699030140247
22.295,-0.861667846009
22.3,-0.99601003564
22.305,-1.08557149539
22.31,-1.13428899273
22.315,-1.13428899273
22.32,-1.0774519125
22.325,-0.971651286971
22.33,-0.825252746989
22.335,-0.658432225799
22.34,-0.487428889181
22.345,-0.32872795088
22.35,-0.198568576678
22.355,-0.0969507665723
22.36,-0.0236284725979
22.365,0.016969441851
22.37,0.0455110059484
22.375,0.0332086076305
22.38,0.000730276071408
22.385,-0.056106804157
22.39,-0.137548681021
22.395,-0.251468889444
22.4,-0.397867429427
22.405,-0.560751183155
22.41,-0.727571704345
22.415,-0.882089827217
22.42,-1.00831243396
22.425,-1.08557149539
22.43,-1.11804982695
22.435,-1.10181066117
22.44,-1.03685399806
22.445,-0.931053372522
22.45,-0.788591600001
22.455,-0.625707846273
22.46,-0.467006907973
22.465,-0.312488785101
22.47,-0.194631809216
22.475,-0.100887534034
22.48,-0.0317480554877
22.485,0.00884985896118
22.49,0.021152257279
22.495,0.016969441851
22.5,-0.0196917051362
22.505,-0.0765287853646
22.51,-0.166090245119
22.515,-0.271890870652
22.52,-0.418289410634
22.525,-0.576990348934
22.53,-0.747747637586
22.535,-0.906448575886
22.54,-1.03685399806
22.545,-1.12223264238
22.55,-1.16701337226
22.555,-1.15471097394
22.56,-1.09369107828
22.565,-0.98789045275
22.57,-0.841491912768
22.575,-0.666551808688
22.58,-0.487428889181
22.585,-0.324791183419
22.59,-0.190448993788
22.595,-0.0846483682544
22.6,-0.00738930681837
22.605,0.0415742384866
22.61,0.065932987156
22.615,0.0698697546177
22.62,0.0415742384866
22.625,-0.0032064913903
22.63,-0.0807116007927
22.635,-0.182329410898
22.64,-0.320608367991
22.645,-0.475372538829
22.65,-0.646129827481
22.655,-0.812950348671
22.66,-0.959348888653
22.665,-1.06933232961
22.67,-1.13428899273
22.675,-1.14240857562
22.68,-1.10181066117
22.685,-1.01224920142
22.69,-0.878153059755
22.695,-0.719452121455
22.7,-0.548448784837
22.705,-0.381628263647
22.71,-0.243349306555
22.715,-0.137548681021
22.72,-0.0479872212672
22.725,0.00491309149947
22.73,0.0332086076305
22.735,0.0373914230586
22.74,0.021152257279
22.745,-0.0196917051362
22.75,-0.0888311836825
22.755,-0.18626617836
22.76,-0.312488785101
22.765,-0.463070140511
22.77,-0.629890661701
22.775,-0.792528367463
22.78,-0.939172955412
22.785,-1.04497358095
22.79,-1.10181066117
22.795,-1.10993024406
22.8,-1.07326909708
22.805,-0.983953685289
22.81,-0.857731078548
22.815,-0.703212955676
22.82,-0.540329201947
22.825,-0.381628263647
22.83,-0.251468889444
22.835,-0.137548681021
22.84,-0.0602896195851
22.845,-0.00738930681837
22.85,0.021152257279
22.855,0.021152257279
22.86,0.000730276071408
22.865,-0.0479872212672
22.87,-0.121309515242
22.875,-0.218990557885
22.88,-0.35308669955
22.885,-0.50366805496
22.89,-0.674671391578
22.895,-0.83730909734
22.9,-0.983953685289
22.905,-1.08950826286
22.91,-1.15077420648
22.915,-1.15889378937
22.92,-1.12223264238
22.925,-1.03267118263
22.93,-0.898328992997
22.935,-0.731508471807
22.94,-0.552631600265
22.945,-0.381628263647
22.95,-0.235229723665
22.955,-0.117126699814
22.96,-0.027811288026
22.965,0.0292718401688
22.97,0.0578134042662
22.975,0.0698697546177
22.98,0.0536305888381
22.985,0.016969441851
22.99,-0.056106804157
22.995,-0.149851079339
23,-0.275827638114
23.005,-0.418289410634
23.01,-0.589292747252
23.015,-0.760050035904
23.02,-0.914568158776
23.025,-1.03685399806
23.03,-1.11411305949
23.035,-1.15077420648
23.04,-1.12616940984
23.045,-1.0570299313
23.05,-0.934990139984
23.055,-0.780472017112
23.06,-0.609468680494
23.065,-0.438711391842
23.07,-0.292066803893
23.075,-0.166090245119
23.08,-0.0723459699366
23.085,-0.0113260742801
23.09,0.0292718401688
23.095,0.0373914230586
23.1,0.0292718401688
23.105,-0.00738930681837
23.11,-0.0684092024749
23.115,-0.166090245119
23.12,-0.283947221003
23.125,-0.430591808952
23.13,-0.597412330142
23.135,-0.764232851332
23.14,-0.910631391314
23.145,-1.02036878431
23.15,-1.09787389371
23.155,-1.11411305949
23.16,-1.08950826286
23.165,-1.00831243396
23.17,-0.890209410107
23.175,-0.743810870124
23.18,-0.576990348934
23.185,-0.418289410634
23.19,-0.275827638114
23.195,-0.16190742969
23.2,-0.0765287853646
23.205,-0.0155088897081
23.21,0.016969441851
23.215,0.021152257279
23.22,0.00884985896118
23.225,-0.0359308709158
23.23,-0.105070349462
23.235,-0.198568576678
23.24,-0.324791183419
23.245,-0.475372538829
23.25,-0.642193060019
23.255,-0.812950348671
23.26,-0.955412121191
23.265,-1.06933232961
23.27,-1.14240857562
23.275,-1.16283055683
23.28,-1.13035222527
23.285,-1.04891034841
23.29,-0.918750974204
23.295,-0.760050035904
23.3,-0.576990348934
23.305,-0.410169827745
23.31,-0.259588472334
23.315,-0.133611913559
23.32,-0.0440504538055
23.325,0.021152257279
23.33,0.0578134042662
23.335,0.0698697546177
23.34,0.0578134042662
23.345,0.0250890247407
23.35,-0.0359308709158
23.355,-0.129429098131
23.36,-0.243349306555
23.365,-0.393930661965
23.37,-0.560751183155
23.375,-0.735691287235
23.38,-0.894392225535
23.385,-1.02455159974
23.39,-1.1059934766
23.395,-1.15077420648
23.4,-1.13035222527
23.405,-1.06933232961
23.41,-0.951229305763
23.415,-0.796711182891
23.42,-0.629890661701
23.425,-0.458887325083
23.43,-0.304369202211
23.435,-0.182329410898
23.44,-0.0807116007927
23.445,-0.0196917051362
23.45,0.0292718401688
23.455,0.0415742384866
23.46,0.0332086076305
23.465,0.000730276071408
23.47,-0.0521700366953
23.475,-0.141731496449
23.48,-0.255651704872
23.485,-0.397867429427
23.49,-0.564687950617
23.495,-0.727571704345
23.5,-0.878153059755
23.505,-1.00831243396
23.51,-1.08557149539
23.515,-1.11411305949
23.52,-1.09787389371
23.525,-1.02455159974
23.53,-0.918750974204
23.535,-0.776289201684
23.54,-0.609468680494
23.545,-0.442648159304
23.55,-0.300432434749
23.555,-0.17814659547
23.56,-0.0927679511442
23.565,-0.0236284725979
23.57,0.016969441851
23.575,0.021152257279
23.58,0.00884985896118
23.585,-0.027811288026
23.59,-0.0888311836825
23.595,-0.17814659547
23.6,-0.300432434749
23.605,-0.442648159304
23.61,-0.609468680494
23.615,-0.776289201684
23.62,-0.931053372522
23.625,-1.05309316384
23.63,-1.13035222527
23.635,-1.15889378937
23.64,-1.13428899273
23.645,-1.06514951419
23.65,-0.943109722873
23.655,-0.788591600001
23.66,-0.613651495922
23.665,-0.434528576414
23.67,-0.283947221003
23.675,-0.153787846801
23.68,-0.0602896195851
23.685,0.016969441851
23.69,0.0496938213764
23.695,0.0698697546177
23.7,0.0578134042662
23.705,0.0332086076305
23.71,-0.027811288026
23.715,-0.113189932352
23.72,-0.231046908237
23.725,-0.369571913296
23.73,-0.536392434486
23.735,-0.707149723137
23.74,-0.870033476866
23.745,-1.00412961853
23.75,-1.10181066117
23.755,-1.14240857562
23.76,-1.13428899273
23.765,-1.0774519125
23.77,-0.971651286971
23.775,-0.817133164099
23.78,-0.650312642909
23.785,-0.479309306291
23.79,-0.320608367991
23.795,-0.194631809216
23.8,-0.0927679511442
23.805,-0.0196917051362
23.81,0.021152257279
23.815,0.0373914230586
23.82,0.0332086076305
23.825,0.000730276071408
23.83,-0.0521700366953
23.835,-0.133611913559
23.84,-0.251468889444
23.845,-0.393930661965
23.85,-0.552631600265
23.855,-0.723388888917
23.86,-0.878153059755
23.865,-1.00019285107
23.87,-1.08557149539
23.875,-1.11804982695
23.88,-1.10181066117
23.885,-1.04079076552
23.89,-0.931053372522
23.895,-0.788591600001
23.9,-0.621771078811
23.905,-0.454950557621
23.91,-0.312488785101
23.915,-0.18626617836
23.92,-0.0927679511442
23.925,-0.027811288026
23.93,0.00884985896118
23.935,0.021152257279
23.94,0.0130326743893
23.945,-0.0196917051362
23.95,-0.0807116007927
23.955,-0.174209828008
23.96,-0.288130036432
23.965,-0.434528576414
23.97,-0.593229514714
23.975,-0.764232851332
23.98,-0.918750974204
23.985,-1.04497358095
23.99,-1.12223264238
23.995,-1.15889378937
24,-1.14240857562
24.005,-1.07326909708
24.01,-0.959348888653
24.015,-0.804830765781
24.02,-0.633827429163
24.025,-0.458887325083
24.03,-0.296249619321
24.035,-0.166090245119
24.04,-0.0642263870468
24.045,0.00884985896118
24.05,0.0496938213764
24.055,0.0698697546177
24.06,0.0617501717279
24.065,0.0332086076305
24.07,-0.0236284725979
24.075,-0.109007116924
24.08,-0.218990557885
24.085,-0.361452330406
24.09,-0.524090036168
24.095,-0.699030140247
24.1,-0.861667846009
24.105,-0.99601003564
24.11,-1.08950826286
24.115,-1.14240857562
24.12,-1.13428899273
24.125,-1.08138867997
24.13,-0.975588054433
24.135,-0.833372329878
24.14,-0.66236899326
24.145,-0.491611704609
24.15,-0.341030349198
24.155,-0.210870974995
24.16,-0.105070349462
24.165,-0.0317480554877
24.17,0.016969441851
24.175,0.0373914230586
24.18,0.0373914230586
24.185,0.00884985896118
24.19,-0.0440504538055
24.195,-0.121309515242
24.2,-0.235229723665
24.205,-0.373508680757
24.21,-0.532209619058
24.215,-0.707149723137
24.22,-0.865850661437
24.225,-0.99601003564
24.23,-1.08557149539
24.235,-1.12223264238
24.24,-1.1059934766
24.245,-1.04497358095
24.25,-0.939172955412
24.255,-0.792528367463
24.26,-0.629890661701
24.265,-0.463070140511
24.27,-0.316671600529
24.275,-0.198568576678
24.28,-0.100887534034
24.285,-0.0359308709158
24.29,0.00884985896118
24.295,0.0250890247407
24.3,0.016969441851
24.305,-0.0196917051362
24.31,-0.0846483682544
24.315,-0.17002701258
24.32,-0.283947221003
24.325,-0.426408993524
24.33,-0.593229514714
24.335,-0.764232851332
24.34,-0.918750974204
24.345,-1.04891034841
24.35,-1.13035222527
24.355,-1.16283055683
24.36,-1.14659139105
24.365,-1.0774519125
24.37,-0.955412121191
24.375,-0.800647950353
24.38,-0.617588263383
24.385,-0.446830974732
24.39,-0.288130036432
24.395,-0.157970662229
24.4,-0.056106804157
24.405,0.016969441851
24.41,0.0496938213764
24.415,0.0698697546177
24.42,0.0578134042662
24.425,0.0292718401688
24.43,-0.027811288026
24.435,-0.113189932352
24.44,-0.231046908237
24.445,-0.369571913296
24.45,-0.532209619058
24.455,-0.703212955676
24.46,-0.865850661437
24.465,-1.00019285107
24.47,-1.09369107828
24.475,-1.13847180816
24.48,-1.13035222527
24.485,-1.06933232961
24.49,-0.959348888653
24.495,-0.809013581209
24.5,-0.642193060019
24.505,-0.471189723401
24.51,-0.316671600529
24.515,-0.18626617836
24.52,-0.0888311836825
24.525,-0.0196917051362
24.53,0.021152257279
24.535,0.0415742384866
24.54,0.0332086076305
24.545,-0.0032064913903
24.55,-0.0602896195851
24.555,-0.149851079339
24.56,-0.271890870652
24.565,-0.410169827745
24.57,-0.576990348934
24.575,-0.743810870124
24.58,-0.898328992997
24.585,-1.02036878431
24.59,-1.09787389371
24.595,-1.11804982695
24.6,-1.09369107828
24.605,-1.02036878431
24.61,-0.902511808425
24.615,-0.756113268442
24.62,-0.585109931824
24.625,-0.426408993524
24.63,-0.283947221003
24.635,-0.157970662229
24.64,-0.0723459699366
24.645,-0.0155088897081
24.65,0.016969441851
24.655,0.0250890247407
24.66,0.00491309149947
24.665,-0.0398676383775
24.67,-0.105070349462
24.675,-0.202751392106
24.68,-0.332910766308
24.685,-0.483492121719
24.69,-0.650312642909
24.695,-0.82106993156
24.7,-0.967468471543
24.705,-1.08138867997
24.71,-1.14659139105
24.715,-1.16283055683
24.72,-1.13035222527
24.725,-1.04079076552
24.73,-0.910631391314
24.735,-0.743810870124
24.74,-0.560751183155
24.745,-0.389747846537
24.75,-0.243349306555
24.755,-0.121309515242
24.76,-0.0317480554877
24.765,0.0292718401688
24.77,0.065932987156
24.775,0.0698697546177
24.78,0.0578134042662
24.785,0.0130326743893
24.79,-0.056106804157
24.795,-0.153787846801
24.8,-0.283947221003
24.805,-0.434528576414
24.81,-0.609468680494
24.815,-0.776289201684
24.82,-0.931053372522
24.825,-1.04891034841
24.83,-1.12223264238
24.835,-1.14659139105
24.84,-1.11411305949
24.845,-1.03267118263
24.85,-0.906448575886
24.855,-0.743810870124
24.86,-0.568870766045
24.865,-0.405987012316
24.87,-0.263771287762
24.875,-0.149851079339
24.88,-0.0602896195851
24.885,0.000730276071408
24.89,0.0332086076305
24.895,0.0373914230586
24.9,0.0250890247407
24.905,-0.0196917051362
24.91,-0.0846483682544
24.915,-0.18626617836
24.92,-0.320608367991
24.925,-0.479309306291
24.93,-0.646129827481
24.935,-0.809013581209
24.94,-0.955412121191
24.945,-1.05309316384
24.95,-1.1059934766
24.955,-1.10993024406
24.96,-1.06121274672
24.965,-0.963531704081
24.97,-0.82918951445
24.975,-0.666551808688
24.98,-0.50366805496
24.985,-0.349149932088
24.99,-0.218990557885
24.995,-0.117126699814
25,-0.0440504538055
25.005,0.00491309149947
25.01,0.0250890247407
25.015,0.021152257279
25.02,-0.00738930681837
25.025,-0.0642263870468
25.03,-0.149851079339
25.035,-0.263771287762
25.04,-0.402050244855
25.045,-0.564687950617
25.05,-0.735691287235
25.055,-0.898328992997
25.06,-1.02455159974
25.065,-1.11804982695
25.07,-1.16283055683
25.075,-1.14659139105
25.08,-1.08557149539
25.085,-0.971651286971
25.09,-0.817133164099
25.095,-0.638010244591
25.1,-0.458887325083
25.105,-0.296249619321
25.11,-0.16190742969
25.115,-0.0602896195851
25.12,0.00491309149947
25.125,0.0496938213764
25.13,0.0740525700458
25.135,0.0617501717279
25.14,0.0332086076305
25.145,-0.0236284725979
25.15,-0.109007116924
25.155,-0.227110140775
25.16,-0.369571913296
25.165,-0.532209619058
25.17,-0.703212955676
25.175,-0.861667846009
25.18,-1.00412961853
25.185,-1.09787389371
25.19,-1.13847180816
25.195,-1.13847180816
25.2,-1.07326909708
25.205,-0.967468471543
25.21,-0.809013581209
25.215,-0.642193060019
25.22,-0.471189723401
25.225,-0.312488785101
25.23,-0.17814659547
25.235,-0.0846483682544
25.24,-0.0155088897081
25.245,0.0250890247407
25.25,0.0415742384866
25.255,0.0292718401688
25.26,-0.00738930681837
25.265,-0.0684092024749
25.27,-0.157970662229
25.275,-0.280010453542
25.28,-0.426408993524
25.285,-0.593229514714
25.29,-0.760050035904
25.295,-0.914568158776
25.3,-1.02455159974
25.305,-1.09369107828
25.31,-1.11411305949
25.315,-1.08138867997
25.32,-1.00019285107
25.325,-0.878153059755
25.33,-0.719452121455
25.335,-0.556568367727
25.34,-0.397867429427
25.345,-0.259588472334
25.35,-0.145668263911
25.355,-0.0602896195851
25.36,-0.0113260742801
25.365,0.0250890247407
25.37,0.021152257279
25.375,-0.0032064913903
25.38,-0.0521700366953
25.385,-0.129429098131
25.39,-0.235229723665
25.395,-0.369571913296
25.4,-0.528272851596
25.405,-0.699030140247
25.41,-0.861667846009
25.415,-1.00412961853
25.42,-1.1059934766
25.425,-1.15889378937
25.43,-1.15471097394
25.435,-1.1059934766
25.44,-1.00019285107
25.445,-0.85354826312
25.45,-0.67860815904
25.455,-0.49554847207
25.46,-0.32872795088
25.465,-0.194631809216
25.47,-0.0846483682544
25.475,-0.0032064913903
25.48,0.0415742384866
25.485,0.065932987156
25.49,0.0698697546177
25.495,0.0373914230586
25.5,-0.0113260742801
25.505,-0.0888311836825
25.51,-0.198568576678
25.515,-0.341030349198
25.52,-0.50366805496
25.525,-0.674671391578
25.53,-0.84542868023
25.535,-0.98789045275
25.54,-1.09369107828
25.545,-1.14240857562
25.55,-1.14240857562
25.555,-1.08950826286
25.56,-0.983953685289
25.565,-0.83730909734
25.57,-0.66236899326
25.575,-0.487428889181
25.58,-0.332910766308
25.585,-0.202751392106
25.59,-0.100887534034
25.595,-0.027811288026
25.6,0.021152257279
25.605,0.0415742384866
25.61,0.0373914230586
25.615,0.00491309149947
25.62,-0.0521700366953
25.625,-0.137548681021
25.63,-0.255651704872
25.635,-0.397867429427
25.64,-0.560751183155
25.645,-0.735691287235
25.65,-0.886272642645
25.655,-1.01224920142
25.66,-1.08950826286
25.665,-1.11411305949
25.67,-1.08557149539
25.675,-1.01643201685
25.68,-0.898328992997
25.685,-0.743810870124
25.69,-0.576990348934
25.695,-0.418289410634
25.7,-0.275827638114
25.705,-0.157970662229
25.71,-0.0684092024749
25.715,-0.0113260742801
25.72,0.016969441851
25.725,0.021152257279
25.73,0.000730276071408
25.735,-0.0398676383775
25.74,-0.117126699814
25.745,-0.218990557885
25.75,-0.349149932088
25.755,-0.499731287498
25.76,-0.67048857615
25.765,-0.841491912768
25.77,-0.983953685289
25.775,-1.08950826286
25.78,-1.15077420648
25.785,-1.15471097394
25.79,-1.1059934766
25.795,-1.01643201685
25.8,-0.870033476866
25.805,-0.699030140247
25.81,-0.524090036168
25.815,-0.35308669955
25.82,-0.206688159567
25.825,-0.0969507665723
25.83,-0.0155088897081
25.835,0.0415742384866
25.84,0.0698697546177
25.845,0.065932987156
25.85,0.0415742384866
25.855,-0.0032064913903
25.86,-0.0765287853646
25.865,-0.18626617836
25.87,-0.320608367991
25.875,-0.479309306291
25.88,-0.650312642909
25.885,-0.82106993156
25.89,-0.967468471543
25.895,-1.08138867997
25.9,-1.13847180816
25.905,-1.14659139105
25.91,-1.10181066117
25.915,-1.00412961853
25.92,-0.857731078548
25.925,-0.690910557358
25.93,-0.515970453278
25.935,-0.35308669955
25.94,-0.218990557885
25.945,-0.109007116924
25.95,-0.0317480554877
25.955,0.016969441851
25.96,0.0373914230586
25.965,0.0373914230586
25.97,0.00884985896118
25.975,-0.0440504538055
25.98,-0.129429098131
25.985,-0.243349306555
25.99,-0.385811079075
25.995,-0.544512017375
26,-0.719452121455
26.005,-0.873970244327
26.01,-1.00019285107
26.015,-1.08557149539
26.02,-1.12223264238
26.025,-1.10181066117
26.03,-1.03267118263
26.035,-0.918750974204
26.04,-0.772352434222
26.045,-0.605531913032
26.05,-0.442648159304
26.055,-0.296249619321
26.06,-0.17002701258
26.065,-0.0846483682544
26.07,-0.0196917051362
26.075,0.016969441851
26.08,0.021152257279
26.085,0.00884985896118
26.09,-0.0317480554877
26.095,-0.105070349462
26.1,-0.194631809216
26.105,-0.324791183419
26.11,-0.475372538829
26.115,-0.646129827481
26.12,-0.812950348671
26.125,-0.959348888653
26.13,-1.07326909708
26.135,-1.14240857562
26.14,-1.15471097394
26.145,-1.12616940984
26.15,-1.02455159974
26.155,-0.898328992997
26.16,-0.735691287235
26.165,-0.552631600265
26.17,-0.377691496185
26.175,-0.227110140775
26.18,-0.113189932352
26.185,-0.027811288026
26.19,0.0292718401688
26.195,0.0617501717279
26.2,0.0740525700458
26.205,0.0496938213764
26.21,0.00491309149947
26.215,-0.0642263870468
26.22,-0.166090245119
26.225,-0.296249619321
26.23,-0.450767742193
26.235,-0.625707846273
26.24,-0.796711182891
26.245,-0.951229305763
26.25,-1.06514951419
26.255,-1.13035222527
26.26,-1.14659139105
26.265,-1.1059934766
26.27,-1.01224920142
26.275,-0.878153059755
26.28,-0.711332538565
26.285,-0.540329201947
26.29,-0.373508680757
26.295,-0.235229723665
26.3,-0.125246282703
26.305,-0.0440504538055
26.31,0.00884985896118
26.315,0.0373914230586
26.32,0.0373914230586
26.325,0.016969441851
26.33,-0.0317480554877
26.335,-0.109007116924
26.34,-0.218990557885
26.345,-0.35308669955
26.35,-0.51178763785
26.355,-0.68672774193
26.36,-0.849611495658
26.365,-0.98789045275
26.37,-1.0774519125
26.375,-1.11804982695
26.38,-1.10993024406
26.385,-1.04891034841
26.39,-0.939172955412
26.395,-0.796711182891
26.4,-0.629890661701
26.405,-0.467006907973
26.41,-0.316671600529
26.415,-0.190448993788
26.42,-0.0969507665723
26.425,-0.0317480554877
26.43,0.00884985896118
26.435,0.021152257279
26.44,0.00884985896118
26.445,-0.0236284725979
26.45,-0.0927679511442
26.455,-0.182329410898
26.46,-0.304369202211
26.465,-0.450767742193
26.47,-0.617588263383
26.475,-0.792528367463
26.48,-0.943109722873
26.485,-1.06514951419
26.49,-1.13847180816
26.495,-1.15889378937
26.5,-1.13035222527
26.505,-1.04497358095
26.51,-0.918750974204
26.515,-0.756113268442
26.52,-0.572807533506
26.525,-0.402050244855
26.53,-0.251468889444
26.535,-0.129429098131
26.54,-0.0359308709158
26.545,0.0250890247407
26.55,0.0578134042662
26.555,0.065932987156
26.56,0.0536305888381
26.565,0.00884985896118
26.57,-0.056106804157
26.575,-0.153787846801
26.58,-0.280010453542
26.585,-0.430591808952
26.59,-0.601349097604
26.595,-0.772352434222
26.6,-0.931053372522
26.605,-1.04891034841
26.61,-1.12616940984
26.615,-1.14240857562
26.62,-1.10993024406
26.625,-1.02455159974
26.63,-0.894392225535
26.635,-0.731508471807
26.64,-0.556568367727
26.645,-0.385811079075
26.65,-0.243349306555
26.655,-0.129429098131
26.66,-0.0479872212672
26.665,0.00884985896118
26.67,0.0373914230586
26.675,0.0415742384866
26.68,0.016969441851
26.685,-0.0317480554877
26.69,-0.105070349462
26.695,-0.210870974995
26.7,-0.349149932088
26.705,-0.50366805496
26.71,-0.682790974468
26.715,-0.84542868023
26.72,-0.983953685289
26.725,-1.07326909708
26.73,-1.11804982695
26.735,-1.1059934766
26.74,-1.04891034841
26.745,-0.943109722873
26.75,-0.800647950353
26.755,-0.638010244591
26.76,-0.463070140511
26.765,-0.312488785101
26.77,-0.18626617836
26.775,-0.0888311836825
26.78,-0.027811288026
26.785,0.016969441851
26.79,0.0250890247407
26.795,0.00884985896118
26.8,-0.027811288026
26.805,-0.0927679511442
26.81,-0.18626617836
26.815,-0.312488785101
26.82,-0.463070140511
26.825,-0.638010244591
26.83,-0.804830765781
26.835,-0.959348888653
26.84,-1.07326909708
26.845,-1.14659139105
26.85,-1.16283055683
26.855,-1.12223264238
26.86,-1.04079076552
26.865,-0.910631391314
26.87,-0.739628054696
26.875,-0.560751183155
26.88,-0.389747846537
26.885,-0.239166491127
26.89,-0.113189932352
26.895,-0.027811288026
26.9,0.0292718401688
26.905,0.0617501717279
26.91,0.065932987156
26.915,0.0496938213764
26.92,0.00491309149947
26.925,-0.0684092024749
26.93,-0.166090245119
26.935,-0.304369202211
26.94,-0.463070140511
26.945,-0.638010244591
26.95,-0.804830765781
26.955,-0.955412121191
26.96,-1.06933232961
26.965,-1.12616940984
26.97,-1.13847180816
26.975,-1.09787389371
26.98,-1.00412961853
26.985,-0.865850661437
26.99,-0.694847324819
26.995,-0.524090036168
27,-0.361452330406
27.005,-0.227110140775
27.01,-0.113189932352
27.015,-0.0359308709158
27.02,0.016969441851
27.025,0.0415742384866
27.03,0.0415742384866
27.035,0.016969441851
27.04,-0.0398676383775
27.045,-0.121309515242
27.05,-0.235229723665
27.055,-0.377691496185
27.06,-0.544512017375
27.065,-0.715269306027
27.07,-0.873970244327
27.075,-1.00412961853
27.08,-1.08950826286
27.085,-1.11804982695
27.09,-1.09787389371
27.095,-1.02455159974
27.1,-0.910631391314
27.105,-0.756113268442
27.11,-0.593229514714
27.115,-0.430591808952
27.12,-0.283947221003
27.125,-0.166090245119
27.13,-0.0723459699366
27.135,-0.0196917051362
27.14,0.016969441851
27.145,0.021152257279
27.15,0.00491309149947
27.155,-0.0359308709158
27.16,-0.113189932352
27.165,-0.206688159567
27.17,-0.332910766308
27.175,-0.491611704609
27.18,-0.66236899326
27.185,-0.833372329878
27.19,-0.979770869861
27.195,-1.08950826286
27.2,-1.15077420648
27.205,-1.15889378937
27.21,-1.11804982695
27.215,-1.02036878431
27.22,-0.878153059755
27.225,-0.707149723137
27.23,-0.524090036168
27.235,-0.357269514978
27.24,-0.210870974995
27.245,-0.0969507665723
27.25,-0.0113260742801
27.255,0.0373914230586
27.26,0.065932987156
27.265,0.065932987156
27.27,0.0415742384866
27.275,-0.0032064913903
27.28,-0.0807116007927
27.285,-0.190448993788
27.29,-0.320608367991
27.295,-0.483492121719
27.3,-0.658432225799
27.305,-0.825252746989
27.31,-0.967468471543
27.315,-1.07326909708
27.32,-1.13428899273
27.325,-1.13847180816
27.33,-1.08950826286
27.335,-0.98789045275
27.34,-0.84542868023
27.345,-0.674671391578
27.35,-0.499731287498
27.355,-0.341030349198
27.36,-0.206688159567
27.365,-0.105070349462
27.37,-0.0236284725979
27.375,0.021152257279
27.38,0.0373914230586
27.385,0.0373914230586
27.39,0.000730276071408
27.395,-0.0521700366953
27.4,-0.145668263911
27.405,-0.259588472334
27.41,-0.405987012316
27.415,-0.572807533506
27.42,-0.743810870124
27.425,-0.898328992997
27.43,-1.02036878431
27.435,-1.08950826286
27.44,-1.11804982695
27.445,-1.08950826286
27.45,-1.01224920142
27.455,-0.894392225535
27.46,-0.743810870124
27.465,-0.568870766045
27.47,-0.410169827745
27.475,-0.267708055224
27.48,-0.149851079339
27.485,-0.0684092024749
27.49,-0.0113260742801
27.495,0.021152257279
27.5,0.021152257279
27.505,0.000730276071408
27.51,-0.0479872212672
27.515,-0.121309515242
27.52,-0.227110140775
27.525,-0.361452330406
27.53,-0.51990722074
27.535,-0.694847324819
27.54,-0.861667846009
27.545,-1.00019285107
27.55,-1.1059934766
27.555,-1.15889378937
27.56,-1.15889378937
27.565,-1.1059934766
27.57,-1.00412961853
27.575,-0.857731078548
27.58,-0.682790974468
27.585,-0.499731287498
27.59,-0.33684753377
27.595,-0.194631809216
27.6,-0.0807116007927
27.605,-0.0032064913903
27.61,0.0455110059484
27.615,0.0698697546177
27.62,0.065932987156
27.625,0.0373914230586
27.63,-0.0155088897081
27.635,-0.0969507665723
27.64,-0.206688159567
27.645,-0.34496711666
27.65,-0.50366805496
27.655,-0.68672774193
27.66,-0.85354826312
27.665,-0.99601003564
27.67,-1.09369107828
27.675,-1.14240857562
27.68,-1.13847180816
27.685,-1.0774519125
27.69,-0.967468471543
27.695,-0.817133164099
27.7,-0.642193060019
27.705,-0.467006907973
27.71,-0.312488785101
27.715,-0.18626617836
27.72,-0.0846483682544
27.725,-0.0196917051362
27.73,0.0250890247407
27.735,0.0373914230586
27.74,0.0373914230586
27.745,-0.0032064913903
27.75,-0.0642263870468
27.755,-0.157970662229
27.76,-0.280010453542
27.765,-0.426408993524
27.77,-0.593229514714
27.775,-0.772352434222
27.78,-0.922933789632
27.785,-1.03685399806
27.79,-1.09787389371
27.795,-1.11411305949
27.8,-1.07326909708
27.805,-0.98789045275
27.81,-0.85354826312
27.815,-0.694847324819
27.82,-0.528272851596
27.825,-0.369571913296
27.83,-0.231046908237
27.835,-0.125246282703
27.84,-0.0521700366953
27.845,0.000730276071408
27.85,0.0250890247407
27.855,0.016969441851
27.86,-0.00738930681837
27.865,-0.0684092024749
27.87,-0.141731496449
27.875,-0.255651704872
27.88,-0.402050244855
27.885,-0.560751183155
27.89,-0.735691287235
27.895,-0.902511808425
27.9,-1.03267118263
27.905,-1.12223264238
27.91,-1.16283055683
27.915,-1.14659139105
27.92,-1.0774519125
27.925,-0.959348888653
27.93,-0.800647950353
27.935,-0.621771078811
27.94,-0.442648159304
27.945,-0.283947221003
27.95,-0.153787846801
27.955,-0.0521700366953
27.96,0.016969441851
27.965,0.0578134042662
27.97,0.0698697546177
27.975,0.0578134042662
27.98,0.021152257279
27.985,-0.0398676383775
27.99,-0.129429098131
27.995,-0.251468889444
28,-0.402050244855
28.005,-0.576990348934
28.01,-0.743810870124
28.015,-0.910631391314
28.02,-1.03267118263
28.025,-1.11804982695
28.03,-1.14240857562
28.035,-1.12223264238
28.04,-1.04497358095
28.045,-0.922933789632
28.05,-0.760050035904
28.055,-0.580927116396
28.06,-0.414352643173
28.065,-0.259588472334
28.07,-0.141731496449
28.075,-0.056106804157
28.08,0.00491309149947
28.085,0.0373914230586
28.09,0.0373914230586
28.095,0.021152257279
28.1,-0.027811288026
28.105,-0.105070349462
28.11,-0.206688159567
28.115,-0.34496711666
28.12,-0.499731287498
28.125,-0.674671391578
28.13,-0.83730909734
28.135,-0.971651286971
28.14,-1.06933232961
28.145,-1.10993024406
28.15,-1.1059934766
28.155,-1.04497358095
28.16,-0.939172955412
28.165,-0.792528367463
28.17,-0.629890661701
28.175,-0.467006907973
28.18,-0.312488785101
28.185,-0.182329410898
28.19,-0.0888311836825
28.195,-0.0236284725979
28.2,0.016969441851
28.205,0.0250890247407
28.21,0.00884985896118
28.215,-0.0317480554877
28.22,-0.0969507665723
28.225,-0.194631809216
28.23,-0.320608367991
28.235,-0.475372538829
28.24,-0.646129827481
28.245,-0.817133164099
28.25,-0.963531704081
28.255,-1.08138867997
28.26,-1.14240857562
28.265,-1.15889378937
28.27,-1.12223264238
28.275,-1.02455159974
28.28,-0.886272642645
28.285,-0.715269306027
28.29,-0.536392434486
28.295,-0.365389097868
28.3,-0.218990557885
28.305,-0.100887534034
28.31,-0.0155088897081
28.315,0.0415742384866
28.32,0.065932987156
28.325,0.0698697546177
28.33,0.0455110059484
28.335,-0.00738930681837
28.34,-0.0807116007927
28.345,-0.190448993788
28.35,-0.324791183419
28.355,-0.483492121719
28.36,-0.658432225799
28.365,-0.833372329878
28.37,-0.979770869861
28.375,-1.08557149539
28.38,-1.14240857562
28.385,-1.14240857562
28.39,-1.08950826286
28.395,-0.98789045275
28.4,-0.841491912768
28.405,-0.666551808688
28.41,-0.491611704609
28.415,-0.332910766308
28.42,-0.202751392106
28.425,-0.100887534034
28.43,-0.0196917051362
28.435,0.021152257279
28.44,0.0415742384866
28.445,0.0373914230586
28.45,0.000730276071408
28.455,-0.056106804157
28.46,-0.141731496449
28.465,-0.259588472334
28.47,-0.410169827745
28.475,-0.580927116396
28.48,-0.747747637586
28.485,-0.906448575886
28.49,-1.02036878431
28.495,-1.09787389371
28.5,-1.11804982695
28.505,-1.08557149539
28.51,-1.00019285107
28.515,-0.873970244327
28.52,-0.719452121455
28.525,-0.548448784837
28.53,-0.385811079075
28.535,-0.247532121983
28.54,-0.137548681021
28.545,-0.0521700366953
28.55,-0.0032064913903
28.555,0.0250890247407
28.56,0.016969441851
28.565,-0.00738930681837
28.57,-0.056106804157
28.575,-0.137548681021
28.58,-0.251468889444
28.585,-0.389747846537
28.59,-0.552631600265
28.595,-0.719452121455
28.6,-0.886272642645
28.605,-1.02455159974
28.61,-1.11804982695
28.615,-1.15889378937
28.62,-1.14659139105
28.625,-1.08138867997
28.63,-0.967468471543
28.635,-0.812950348671
28.64,-0.633827429163
28.645,-0.454950557621
28.65,-0.296249619321
28.655,-0.16190742969
28.66,-0.0602896195851
28.665,0.00884985896118
28.67,0.0536305888381
28.675,0.065932987156
28.68,0.0617501717279
28.685,0.0250890247407
28.69,-0.0359308709158
28.695,-0.129429098131
28.7,-0.243349306555
28.705,-0.389747846537
28.71,-0.560751183155
28.715,-0.739628054696
28.72,-0.894392225535
28.725,-1.0284883672
28.73,-1.10993024406
28.735,-1.15077420648
28.74,-1.12616940984
28.745,-1.04891034841
28.75,-0.926870557094
28.755,-0.764232851332
28.76,-0.585109931824
28.765,-0.414352643173
28.77,-0.267708055224
28.775,-0.145668263911
28.78,-0.056106804157
28.785,0.000730276071408
28.79,0.0332086076305
28.795,0.0415742384866
28.8,0.021152257279
28.805,-0.027811288026
28.81,-0.0969507665723
28.815,-0.202751392106
28.82,-0.332910766308
28.825,-0.49554847207
28.83,-0.666551808688
28.835,-0.833372329878
28.84,-0.975588054433
28.845,-1.06933232961
28.85,-1.11804982695
28.855,-1.10993024406
28.86,-1.05309316384
28.865,-0.951229305763
28.87,-0.809013581209
28.875,-0.642193060019
28.88,-0.471189723401
28.885,-0.316671600529
28.89,-0.190448993788
28.895,-0.0969507665723
28.9,-0.0236284725979
28.905,0.00884985896118
28.91,0.0250890247407
28.915,0.00884985896118
28.92,-0.027811288026
28.925,-0.0969507665723
28.93,-0.190448993788
28.935,-0.312488785101
28.94,-0.467006907973
28.945,-0.638010244591
28.95,-0.804830765781
28.955,-0.959348888653
28.96,-1.0774519125
28.965,-1.14240857562
28.97,-1.16283055683
28.975,-1.12223264238
28.98,-1.03685399806
28.985,-0.902511808425
28.99,-0.735691287235
28.995,-0.552631600265
29,-0.377691496185
29.005,-0.227110140775
29.01,-0.109007116924
29.015,-0.0236284725979
29.02,0.0332086076305
29.025,0.065932987156
29.03,0.065932987156
29.035,0.0496938213764
29.04,0.000730276071408
29.045,-0.0765287853646
29.05,-0.182329410898
29.055,-0.316671600529
29.06,-0.475372538829
29.065,-0.650312642909
29.07,-0.825252746989
29.075,-0.971651286971
29.08,-1.08138867997
29.085,-1.13847180816
29.09,-1.14240857562
29.095,-1.09787389371
29.1,-0.992073268179
29.105,-0.85354826312
29.11,-0.67860815904
29.115,-0.50366805496
29.12,-0.34496711666
29.125,-0.214807742457
29.13,-0.109007116924
29.135,-0.0359308709158
29.14,0.016969441851
29.145,0.0373914230586
29.15,0.0332086076305
29.155,0.00884985896118
29.16,-0.0479872212672
29.165,-0.133611913559
29.17,-0.243349306555
29.175,-0.389747846537
29.18,-0.556568367727
29.185,-0.727571704345
29.19,-0.886272642645
29.195,-1.01224920142
29.2,-1.09369107828
29.205,-1.12223264238
29.21,-1.09787389371
29.215,-1.02455159974
29.22,-0.906448575886
29.225,-0.751930453014
29.23,-0.585109931824
29.235,-0.422472226062
29.24,-0.275827638114
29.245,-0.157970662229
29.25,-0.0765287853646
29.255,-0.0113260742801
29.26,0.016969441851
29.265,0.021152257279
29.27,0.000730276071408
29.275,-0.0440504538055
29.28,-0.117126699814
29.285,-0.218990557885
29.29,-0.349149932088
29.295,-0.50366805496
29.3,-0.67860815904
29.305,-0.841491912768
29.31,-0.992073268179
29.315,-1.09369107828
29.32,-1.15077420648
29.325,-1.15471097394
29.33,-1.1059934766
29.335,-1.00831243396
29.34,-0.865850661437
29.345,-0.68672774193
29.35,-0.50366805496
29.355,-0.33684753377
29.36,-0.198568576678
29.365,-0.0888311836825
29.37,-0.0032064913903
29.375,0.0455110059484
29.38,0.0698697546177
29.385,0.0617501717279
29.39,0.0373914230586
29.395,-0.0196917051362
29.4,-0.0927679511442
29.405,-0.206688159567
29.41,-0.34496711666
29.415,-0.507850870388
29.42,-0.67860815904
29.425,-0.849611495658
29.43,-0.98789045275
29.435,-1.09369107828
29.44,-1.13847180816
29.445,-1.13847180816
29.45,-1.0774519125
29.455,-0.967468471543
29.46,-0.817133164099
29.465,-0.642193060019
29.47,-0.471189723401
29.475,-0.312488785101
29.48,-0.18626617836
29.485,-0.0807116007927
29.49,-0.0113260742801
29.495,0.0250890247407
29.5,0.0415742384866
29.505,0.0292718401688
29.51,-0.0032064913903
29.515,-0.0684092024749
29.52,-0.16190742969
29.525,-0.288130036432
29.53,-0.438711391842
29.535,-0.605531913032
29.54,-0.776289201684
29.545,-0.926870557094
29.55,-1.03685399806
29.555,-1.1059934766
29.56,-1.12223264238
29.565,-1.08138867997
29.57,-0.99601003564
29.575,-0.865850661437
29.58,-0.711332538565
29.585,-0.536392434486
29.59,-0.377691496185
29.595,-0.239166491127
29.6,-0.133611913559
29.605,-0.0521700366953
29.61,-0.0032064913903
29.615,0.021152257279
29.62,0.016969441851
29.625,-0.00738930681837
29.63,-0.0642263870468
29.635,-0.145668263911
29.64,-0.255651704872
29.645,-0.393930661965
29.65,-0.560751183155
29.655,-0.731508471807
29.66,-0.894392225535
29.665,-1.03267118263
29.67,-1.12223264238
29.675,-1.15889378937
29.68,-1.15077420648
29.685,-1.08557149539
29.69,-0.975588054433
29.695,-0.82106993156
29.7,-0.642193060019
29.705,-0.463070140511
29.71,-0.300432434749
29.715,-0.166090245119
29.72,-0.0602896195851
29.725,0.00491309149947
29.73,0.0536305888381
29.735,0.0698697546177
29.74,0.0617501717279
29.745,0.0292718401688
29.75,-0.0359308709158
29.755,-0.121309515242
29.76,-0.243349306555
29.765,-0.389747846537
29.77,-0.560751183155
29.775,-0.735691287235
29.78,-0.894392225535
29.785,-1.02455159974
29.79,-1.11411305949
29.795,-1.14240857562
29.8,-1.12223264238
29.805,-1.04891034841
29.81,-0.926870557094
29.815,-0.768169618794
29.82,-0.593229514714
29.825,-0.426408993524
29.83,-0.280010453542
29.835,-0.153787846801
29.84,-0.0642263870468
29.845,-0.0032064913903
29.85,0.0332086076305
29.855,0.0373914230586
29.86,0.0250890247407
29.865,-0.0155088897081
29.87,-0.0846483682544
29.875,-0.182329410898
29.88,-0.308552017639
29.885,-0.467006907973
29.89,-0.638010244591
29.895,-0.804830765781
29.9,-0.951229305763
29.905,-1.0570299313
29.91,-1.11411305949
29.915,-1.10993024406
29.92,-1.06514951419
29.925,-0.967468471543
29.93,-0.833372329878
29.935,-0.666551808688
29.94,-0.499731287498
29.945,-0.341030349198
29.95,-0.214807742457
29.955,-0.113189932352
29.96,-0.0398676383775
29.965,0.00491309149947
29.97,0.021152257279
29.975,0.016969441851
29.98,-0.0155088897081
29.985,-0.0765287853646
29.99,-0.16190742969
29.995,-0.280010453542
30,-0.422472226062
30.005,-0.585109931824
30.01,-0.756113268442
30.015,-0.918750974204
30.02,-1.04497358095
30.025,-1.13428899273
30.03,-1.16283055683
30.035,-1.13847180816
30.04,-1.06933232961
30.045,-0.947292538302
30.05,-0.784408784573
30.055,-0.601349097604
30.06,-0.426408993524
30.065,-0.267708055224
30.07,-0.141731496449
30.075,-0.0440504538055
30.08,0.021152257279
30.085,0.0578134042662
30.09,0.0698697546177
30.095,0.0578134042662
30.1,0.021152257279
30.105,-0.0479872212672
30.11,-0.141731496449
30.115,-0.267708055224
30.12,-0.422472226062
30.125,-0.585109931824
30.13,-0.760050035904
30.135,-0.914568158776
30.14,-1.04079076552
30.145,-1.11804982695
30.15,-1.14659139105
30.155,-1.12223264238
30.16,-1.04079076552
30.165,-0.918750974204
30.17,-0.756113268442
30.175,-0.580927116396
30.18,-0.418289410634
30.185,-0.267708055224
30.19,-0.153787846801
30.195,-0.0602896195851
30.2,0.000730276071408
30.205,0.0332086076305
30.21,0.0415742384866
30.215,0.0292718401688
30.22,-0.0155088897081
30.225,-0.0846483682544
30.23,-0.182329410898
30.235,-0.308552017639
30.24,-0.454950557621
30.245,-0.617588263383
30.25,-0.784408784573
30.255,-0.934990139984
30.26,-1.04079076552
30.265,-1.1059934766
30.27,-1.11804982695
30.275,-1.08138867997
30.28,-1.00019285107
30.285,-0.878153059755
30.29,-0.723388888917
30.295,-0.552631600265
30.3,-0.402050244855
30.305,-0.263771287762
30.31,-0.149851079339
30.315,-0.0684092024749
30.32,-0.0155088897081
30.325,0.021152257279
30.33,0.0250890247407
30.335,0.00491309149947
30.34,-0.0398676383775
30.345,-0.113189932352
30.35,-0.206688159567
30.355,-0.33684753377
30.36,-0.483492121719
30.365,-0.654249410371
30.37,-0.82106993156
30.375,-0.971651286971
30.38,-1.08138867997
30.385,-1.15077420648
30.39,-1.16283055683
30.395,-1.13035222527
30.4,-1.04497358095
30.405,-0.918750974204
30.41,-0.751930453014
30.415,-0.576990348934
30.42,-0.410169827745
30.425,-0.255651704872
30.43,-0.137548681021
30.435,-0.0398676383775
30.44,0.021152257279
30.445,0.0578134042662
30.45,0.0698697546177
30.455,0.0578134042662
30.46,0.016969441851
30.465,-0.0440504538055
30.47,-0.133611913559
30.475,-0.251468889444
30.48,-0.397867429427
30.485,-0.568870766045
30.49,-0.735691287235
30.495,-0.890209410107
30.5,-1.02455159974
30.505,-1.10993024406
30.51,-1.14659139105
30.515,-1.13428899273
30.52,-1.06933232961
30.525,-0.955412121191
30.53,-0.800647950353
30.535,-0.633827429163
30.54,-0.467006907973
30.545,-0.316671600529
30.55,-0.18626617836
30.555,-0.0888311836825
30.56,-0.0196917051362
30.565,0.021152257279
30.57,0.0415742384866
30.575,0.0373914230586
30.58,0.000730276071408
30.585,-0.0521700366953
30.59,-0.133611913559
30.595,-0.243349306555
30.6,-0.385811079075
30.605,-0.540329201947
30.61,-0.711332538565
30.615,-0.870033476866
30.62,-0.992073268179
30.625,-1.0774519125
30.63,-1.11411305949
30.635,-1.10181066117
30.64,-1.04079076552
30.645,-0.931053372522
30.65,-0.792528367463
30.655,-0.633827429163
30.66,-0.467006907973
30.665,-0.324791183419
30.67,-0.198568576678
30.675,-0.100887534034
30.68,-0.0359308709158
30.685,0.00491309149947
30.69,0.021152257279
30.695,0.016969441851
30.7,-0.0155088897081
30.705,-0.0765287853646
30.71,-0.157970662229
30.715,-0.271890870652
30.72,-0.405987012316
30.725,-0.572807533506
30.73,-0.739628054696
30.735,-0.894392225535
30.74,-1.02455159974
30.745,-1.11804982695
30.75,-1.16283055683
30.755,-1.14659139105
30.76,-1.09369107828
30.765,-0.983953685289
30.77,-0.833372329878
30.775,-0.66236899326
30.78,-0.483492121719
30.785,-0.324791183419
30.79,-0.18626617836
30.795,-0.0807116007927
30.8,-0.00738930681837
30.805,0.0415742384866
30.81,0.065932987156
30.815,0.065932987156
30.82,0.0415742384866
30.825,-0.00738930681837
30.83,-0.0846483682544
30.835,-0.190448993788
30.84,-0.320608367991
30.845,-0.475372538829
30.85,-0.646129827481
30.855,-0.812950348671
30.86,-0.959348888653
30.865,-1.06933232961
30.87,-1.13428899273
30.875,-1.14659139105
30.88,-1.10993024406
30.885,-1.02036878431
30.89,-0.890209410107
30.895,-0.727571704345
30.9,-0.556568367727
30.905,-0.389747846537
30.91,-0.243349306555
30.915,-0.137548681021
30.92,-0.0521700366953
30.925,0.000730276071408
30.93,0.0332086076305
30.935,0.0373914230586
30.94,0.021152257279
30.945,-0.0236284725979
30.95,-0.0888311836825
30.955,-0.190448993788
30.96,-0.316671600529
30.965,-0.467006907973
30.97,-0.633827429163
30.975,-0.800647950353
30.98,-0.943109722873
30.985,-1.04891034841
30.99,-1.1059934766
30.995,-1.11411305949
31,-1.07326909708
31.005,-0.992073268179
31.01,-0.870033476866
31.015,-0.715269306027
31.02,-0.548448784837
31.025,-0.389747846537
31.03,-0.255651704872
31.035,-0.141731496449
31.04,-0.0602896195851
31.045,-0.0113260742801
31.05,0.016969441851
31.055,0.016969441851
31.06,-0.0032064913903
31.065,-0.0479872212672
31.07,-0.121309515242
31.075,-0.218990557885
31.08,-0.349149932088
31.085,-0.50366805496
31.09,-0.666551808688
31.095,-0.833372329878
31.1,-0.975588054433
31.105,-1.08138867997
31.11,-1.15077420648
31.115,-1.15889378937
31.12,-1.12223264238
31.125,-1.03685399806
31.13,-0.902511808425
31.135,-0.739628054696
31.14,-0.564687950617
31.145,-0.393930661965
31.15,-0.239166491127
31.155,-0.129429098131
31.16,-0.0359308709158
31.165,0.0250890247407
31.17,0.0617501717279
31.175,0.0698697546177
31.18,0.0536305888381
31.185,0.016969441851
31.19,-0.0479872212672
31.195,-0.145668263911
31.2,-0.267708055224
31.205,-0.418289410634
31.21,-0.585109931824
31.215,-0.756113268442
31.22,-0.910631391314
31.225,-1.03685399806
31.23,-1.11804982695
31.235,-1.15077420648
31.24,-1.13035222527
31.245,-1.0570299313
31.25,-0.934990139984
31.255,-0.776289201684
31.26,-0.609468680494
31.265,-0.442648159304
31.27,-0.292066803893
31.275,-0.174209828008
31.28,-0.0807116007927
31.285,-0.0113260742801
31.29,0.0250890247407
31.295,0.0373914230586
31.3,0.0332086076305
31.305,-0.0032064913903
31.31,-0.0642263870468
31.315,-0.149851079339
31.32,-0.271890870652
31.325,-0.414352643173
31.33,-0.576990348934
31.335,-0.751930453014
31.34,-0.902511808425
31.345,-1.02036878431
31.35,-1.09787389371
31.355,-1.11804982695
31.36,-1.09369107828
31.365,-1.02036878431
31.37,-0.902511808425
31.375,-0.756113268442
31.38,-0.593229514714
31.385,-0.434528576414
31.39,-0.288130036432
31.395,-0.17002701258
31.4,-0.0807116007927
31.405,-0.0196917051362
31.41,0.00884985896118
31.415,0.021152257279
31.42,0.00491309149947
31.425,-0.0317480554877
31.43,-0.0969507665723
31.435,-0.18626617836
31.44,-0.316671600529
31.445,-0.454950557621
31.45,-0.625707846273
31.455,-0.792528367463
31.46,-0.947292538302
31.465,-1.06514951419
31.47,-1.13847180816
31.475,-1.16283055683
31.48,-1.13428899273
31.485,-1.0570299313
31.49,-0.934990139984
31.495,-0.772352434222
31.5,-0.593229514714
31.505,-0.422472226062
31.51,-0.263771287762
31.515,-0.141731496449
31.52,-0.0440504538055
31.525,0.016969441851
31.53,0.0578134042662
31.535,0.065932987156
31.54,0.0578134042662
31.545,0.0250890247407
31.55,-0.0398676383775
31.555,-0.121309515242
31.56,-0.243349306555
31.565,-0.385811079075
31.57,-0.552631600265
31.575,-0.723388888917
31.58,-0.882089827217
31.585,-1.01643201685
31.59,-1.1059934766
31.595,-1.14659139105
31.6,-1.13428899273
31.605,-1.06514951419
31.61,-0.951229305763
31.615,-0.800647950353
31.62,-0.625707846273
31.625,-0.458887325083
31.63,-0.308552017639
31.635,-0.17814659547
31.64,-0.0807116007927
31.645,-0.0196917051362
31.65,0.0250890247407
31.655,0.0415742384866
31.66,0.0292718401688
31.665,-0.0032064913903
31.67,-0.0642263870468
31.675,-0.149851079339
31.68,-0.267708055224
31.685,-0.410169827745
31.69,-0.576990348934
31.695,-0.747747637586
31.7,-0.902511808425
31.705,-1.02455159974
31.71,-1.09369107828
31.715,-1.11804982695
31.72,-1.09369107828
31.725,-1.02455159974
31.73,-0.906448575886
31.735,-0.760050035904
31.74,-0.593229514714
31.745,-0.430591808952
31.75,-0.288130036432
31.755,-0.166090245119
31.76,-0.0807116007927
31.765,-0.0196917051362
31.77,0.016969441851
31.775,0.0250890247407
31.78,0.00491309149947
31.785,-0.0398676383775
31.79,-0.100887534034
31.795,-0.198568576678
31.8,-0.32872795088
31.805,-0.479309306291
31.81,-0.642193060019
31.815,-0.812950348671
31.82,-0.963531704081
31.825,-1.07326909708
31.83,-1.14240857562
31.835,-1.16283055683
31.84,-1.13428899273
31.845,-1.04891034841
31.85,-0.918750974204
31.855,-0.756113268442
31.86,-0.576990348934
31.865,-0.402050244855
31.87,-0.251468889444
31.875,-0.129429098131
31.88,-0.0359308709158
31.885,0.0250890247407
31.89,0.0578134042662
31.895,0.0698697546177
31.9,0.0536305888381
31.905,0.0130326743893
31.91,-0.0521700366953
31.915,-0.149851079339
31.92,-0.267708055224
31.925,-0.414352643173
31.93,-0.589292747252
31.935,-0.760050035904
31.94,-0.914568158776
31.945,-1.04079076552
31.95,-1.11804982695
31.955,-1.14659139105
31.96,-1.12223264238
31.965,-1.04497358095
31.97,-0.918750974204
31.975,-0.764232851332
31.98,-0.589292747252
31.985,-0.422472226062
31.99,-0.280010453542
31.995,-0.157970662229
32,-0.0684092024749
32.005,-0.00738930681837
32.01,0.0292718401688
32.015,0.0415742384866
32.02,0.0250890247407
32.025,-0.0113260742801
32.03,-0.0723459699366
32.035,-0.17002701258
32.04,-0.296249619321
32.045,-0.446830974732
32.05,-0.613651495922
32.055,-0.784408784573
32.06,-0.931053372522
32.065,-1.04079076552
32.07,-1.1059934766
32.075,-1.11804982695
32.08,-1.08138867997
32.085,-0.99601003564
32.09,-0.865850661437
32.095,-0.711332538565
32.1,-0.544512017375
32.105,-0.389747846537
32.11,-0.251468889444
32.115,-0.141731496449
32.12,-0.0642263870468
32.125,-0.0113260742801
32.13,0.021152257279
32.135,0.016969441851
32.14,-0.0032064913903
32.145,-0.0479872212672
32.15,-0.129429098131
32.155,-0.231046908237
32.16,-0.361452330406
32.165,-0.515970453278
32.17,-0.690910557358
32.175,-0.85354826312
32.18,-1.00019285107
32.185,-1.10181066117
32.19,-1.15889378937
32.195,-1.15471097394
32.2,-1.10993024406
32.205,-1.00831243396
32.21,-0.870033476866
32.215,-0.699030140247
32.22,-0.51990722074
32.225,-0.349149932088
32.23,-0.206688159567
32.235,-0.0969507665723
32.24,-0.0155088897081
32.245,0.0415742384866
32.25,0.0617501717279
32.255,0.065932987156
32.26,0.0415742384866
32.265,-0.0032064913903
32.27,-0.0765287853646
32.275,-0.182329410898
32.28,-0.312488785101
32.285,-0.475372538829
32.29,-0.642193060019
32.295,-0.804830765781
32.3,-0.951229305763
32.305,-1.06933232961
32.31,-1.13428899273
32.315,-1.14240857562
32.32,-1.1059934766
32.325,-1.01224920142
32.33,-0.873970244327
32.335,-0.711332538565
32.34,-0.536392434486
32.345,-0.369571913296
32.35,-0.227110140775
32.355,-0.117126699814
32.36,-0.0398676383775
32.365,0.0130326743893
32.37,0.0373914230586
32.375,0.0373914230586
32.38,0.0130326743893
32.385,-0.0359308709158
32.39,-0.113189932352
32.395,-0.218990557885
32.4,-0.357269514978
32.405,-0.51990722074
32.41,-0.68672774193
32.415,-0.84542868023
32.42,-0.983953685289
32.425,-1.06933232961
32.43,-1.10993024406
32.435,-1.1059934766
32.44,-1.04891034841
32.445,-0.943109722873
32.45,-0.809013581209
32.455,-0.646129827481
32.46,-0.479309306291
32.465,-0.32872795088
32.47,-0.198568576678
32.475,-0.100887534034
32.48,-0.0359308709158
32.485,0.00884985896118
32.49,0.021152257279
32.495,0.016969441851
32.5,-0.0236284725979
32.505,-0.0846483682544
32.51,-0.174209828008
32.515,-0.292066803893
32.52,-0.438711391842
32.525,-0.601349097604
32.53,-0.772352434222
32.535,-0.931053372522
32.54,-1.05309316384
32.545,-1.13428899273
32.55,-1.16283055683
32.555,-1.13847180816
32.56,-1.07326909708
32.565,-0.947292538302
32.57,-0.792528367463
32.575,-0.609468680494
32.58,-0.438711391842
32.585,-0.280010453542
32.59,-0.149851079339
32.595,-0.0521700366953
32.6,0.0130326743893
32.605,0.0578134042662
32.61,0.0698697546177
32.615,0.0617501717279
32.62,0.0250890247407
32.625,-0.0398676383775
32.63,-0.129429098131
32.635,-0.243349306555
32.64,-0.397867429427
32.645,-0.568870766045
32.65,-0.735691287235
32.655,-0.898328992997
32.66,-1.0284883672
32.665,-1.11411305949
32.67,-1.14659139105
32.675,-1.13035222527
32.68,-1.06121274672
32.685,-0.939172955412
32.69,-0.784408784573
32.695,-0.605531913032
32.7,-0.442648159304
32.705,-0.288130036432
32.71,-0.166090245119
32.715,-0.0765287853646
32.72,-0.0113260742801
32.725,0.0292718401688
32.73,0.0373914230586
32.735,0.0250890247407
32.74,-0.0113260742801
32.745,-0.0723459699366
32.75,-0.166090245119
32.755,-0.292066803893
32.76,-0.442648159304
32.765,-0.609468680494
32.77,-0.776289201684
32.775,-0.926870557094
32.78,-1.04079076552
32.785,-1.1059934766
32.79,-1.11804982695
32.795,-1.0774519125
32.8,-0.992073268179
32.805,-0.861667846009
32.81,-0.707149723137
32.815,-0.536392434486
32.82,-0.377691496185
32.825,-0.243349306555
32.83,-0.137548681021
32.835,-0.056106804157
32.84,-0.00738930681837
32.845,0.016969441851
32.85,0.021152257279
32.855,-0.00738930681837
32.86,-0.0521700366953
32.865,-0.137548681021
32.87,-0.239166491127
32.875,-0.377691496185
32.88,-0.540329201947
32.885,-0.711332538565
32.89,-0.878153059755
32.895,-1.01643201685
32.9,-1.10993024406
32.905,-1.15889378937
32.91,-1.15471097394
32.915,-1.09369107828
32.92,-0.98789045275
32.925,-0.83730909734
32.93,-0.66236899326
32.935,-0.483492121719
32.94,-0.320608367991
32.945,-0.182329410898
32.95,-0.0765287853646
32.955,0.000730276071408
32.96,0.0455110059484
32.965,0.065932987156
32.97,0.065932987156
32.975,0.0332086076305
32.98,-0.0196917051362
32.985,-0.100887534034
32.99,-0.214807742457
32.995,-0.35308669955
33,-0.51990722074
33.005,-0.690910557358
33.01,-0.857731078548
33.015,-0.99601003564
33.02,-1.09369107828
33.025,-1.14240857562
33.03,-1.13847180816
33.035,-1.0774519125
33.04,-0.971651286971
33.045,-0.82106993156
33.05,-0.646129827481
33.055,-0.479309306291
33.06,-0.316671600529
33.065,-0.18626617836
33.07,-0.0888311836825
33.075,-0.0196917051362
33.08,0.0250890247407
33.085,0.0415742384866
33.09,0.0292718401688
33.095,-0.0032064913903
33.1,-0.0642263870468
33.105,-0.153787846801
33.11,-0.271890870652
33.115,-0.422472226062
33.12,-0.589292747252
33.125,-0.760050035904
33.13,-0.914568158776
33.135,-1.02455159974
33.14,-1.10181066117
33.145,-1.11411305949
33.15,-1.08950826286
33.155,-1.00831243396
33.16,-0.882089827217
33.165,-0.731508471807
33.17,-0.556568367727
33.175,-0.397867429427
33.18,-0.259588472334
33.185,-0.149851079339
33.19,-0.056106804157
33.195,-0.00738930681837
33.2,0.021152257279
33.205,0.021152257279
33.21,-0.0032064913903
33.215,-0.0521700366953
33.22,-0.133611913559
33.225,-0.239166491127
33.23,-0.373508680757
33.235,-0.532209619058
33.24,-0.703212955676
33.245,-0.870033476866
33.25,-1.00831243396
33.255,-1.10993024406
33.26,-1.15889378937
33.265,-1.15471097394
33.27,-1.10181066117
33.275,-0.99601003564
33.28,-0.849611495658
33.285,-0.67048857615
33.29,-0.49554847207
33.295,-0.32872795088
33.3,-0.190448993788
33.305,-0.0765287853646
33.31,-0.0032064913903
33.315,0.0496938213764
33.32,0.0698697546177
33.325,0.0617501717279
33.33,0.0415742384866
33.335,-0.0155088897081
33.34,-0.0927679511442
33.345,-0.206688159567
33.35,-0.349149932088
33.355,-0.515970453278
33.36,-0.68672774193
33.365,-0.85354826312
33.37,-0.99601003564
33.375,-1.09369107828
33.38,-1.14659139105
33.385,-1.14240857562
33.39,-1.08138867997
33.395,-0.971651286971
33.4,-0.82106993156
33.405,-0.650312642909
33.41,-0.479309306291
33.415,-0.324791183419
33.42,-0.194631809216
33.425,-0.0927679511442
33.43,-0.0196917051362
33.435,0.021152257279
33.44,0.0415742384866
33.445,0.0373914230586
33.45,0.00491309149947
33.455,-0.056106804157
33.46,-0.137548681021
33.465,-0.259588472334
33.47,-0.405987012316
33.475,-0.572807533506
33.48,-0.739628054696
33.485,-0.894392225535
33.49,-1.01643201685
33.495,-1.09787389371
33.5,-1.12223264238
33.505,-1.08950826286
33.51,-1.01643201685
33.515,-0.894392225535
33.52,-0.739628054696
33.525,-0.572807533506
33.53,-0.414352643173
33.535,-0.271890870652
33.54,-0.153787846801
33.545,-0.0723459699366
33.55,-0.0155088897081
33.555,0.021152257279
33.56,0.021152257279
33.565,0.000730276071408
33.57,-0.0440504538055
33.575,-0.117126699814
33.58,-0.222927325347
33.585,-0.349149932088
33.59,-0.50366805496
33.595,-0.67860815904
33.6,-0.84542868023
33.605,-0.98789045275
33.61,-1.09369107828
33.615,-1.15077420648
33.62,-1.15889378937
33.625,-1.1059934766
33.63,-1.01224920142
33.635,-0.873970244327
33.64,-0.699030140247
33.645,-0.51990722074
33.65,-0.349149932088
33.655,-0.202751392106
33.66,-0.0888311836825
33.665,-0.00738930681837
33.67,0.0415742384866
33.675,0.0617501717279
33.68,0.0698697546177
33.685,0.0415742384866
33.69,-0.00738930681837
33.695,-0.0846483682544
33.7,-0.190448993788
33.705,-0.32872795088
33.71,-0.491611704609
33.715,-0.666551808688
33.72,-0.833372329878
33.725,-0.971651286971
33.73,-1.08138867997
33.735,-1.13847180816
33.74,-1.14240857562
33.745,-1.09369107828
33.75,-0.992073268179
33.755,-0.84542868023
33.76,-0.67860815904
33.765,-0.50366805496
33.77,-0.341030349198
33.775,-0.206688159567
33.78,-0.100887534034
33.785,-0.027811288026
33.79,0.016969441851
33.795,0.0415742384866
33.8,0.0292718401688
33.805,0.00491309149947
33.81,-0.056106804157
33.815,-0.141731496449
33.82,-0.255651704872
33.825,-0.402050244855
33.83,-0.568870766045
33.835,-0.735691287235
33.84,-0.894392225535
33.845,-1.01643201685
33.85,-1.09369107828
33.855,-1.11804982695
33.86,-1.09369107828
33.865,-1.02455159974
33.87,-0.902511808425
33.875,-0.751930453014
33.88,-0.580927116396
33.885,-0.418289410634
33.89,-0.275827638114
33.895,-0.16190742969
33.9,-0.0723459699366
33.905,-0.0113260742801
33.91,0.016969441851
33.915,0.021152257279
33.92,0.000730276071408
33.925,-0.0479872212672
33.93,-0.117126699814
33.935,-0.218990557885
33.94,-0.349149932088
33.945,-0.51178763785
33.95,-0.67860815904
33.955,-0.849611495658
33.96,-0.992073268179
33.965,-1.09369107828
33.97,-1.15471097394
33.975,-1.15471097394
33.98,-1.10993024406
33.985,-1.01224920142
33.99,-0.870033476866
33.995,-0.694847324819
34,-0.515970453278
34.005,-0.349149932088
34.01,-0.206688159567
34.015,-0.0888311836825
34.02,-0.0113260742801
34.025,0.0373914230586
34.03,0.0698697546177
34.035,0.065932987156
34.04,0.0415742384866
34.045,-0.00738930681837
34.05,-0.0888311836825
34.055,-0.194631809216
34.06,-0.33684753377
34.065,-0.49554847207
34.07,-0.67048857615
34.075,-0.841491912768
34.08,-0.983953685289
34.085,-1.08557149539
34.09,-1.14240857562
34.095,-1.13847180816
34.1,-1.08950826286
34.105,-0.983953685289
34.11,-0.83730909734
34.115,-0.67048857615
34.12,-0.49554847207
34.125,-0.33684753377
34.13,-0.206688159567
34.135,-0.100887534034
34.14,-0.0317480554877
34.145,0.021152257279
34.15,0.0373914230586
34.155,0.0332086076305
34.16,0.00491309149947
34.165,-0.0521700366953
34.17,-0.133611913559
34.175,-0.255651704872
34.18,-0.402050244855
34.185,-0.564687950617
34.19,-0.731508471807
34.195,-0.894392225535
34.2,-1.02036878431
34.205,-1.09369107828
34.21,-1.12223264238
34.215,-1.08950826286
34.22,-1.01643201685
34.225,-0.898328992997
34.23,-0.739628054696
34.235,-0.576990348934
34.24,-0.414352643173
34.245,-0.271890870652
34.25,-0.157970662229
34.255,-0.0723459699366
34.26,-0.0155088897081
34.265,0.016969441851
34.27,0.016969441851
34.275,0.000730276071408
34.28,-0.0440504538055
34.285,-0.121309515242
34.29,-0.218990557885
34.295,-0.35308669955
34.3,-0.51178763785
34.305,-0.682790974468
34.31,-0.849611495658
34.315,-0.99601003564
34.32,-1.09787389371
34.325,-1.15889378937
34.33,-1.15889378937
34.335,-1.10993024406
34.34,-1.00831243396
34.345,-0.870033476866
34.35,-0.694847324819
34.355,-0.51178763785
34.36,-0.34496711666
34.365,-0.198568576678
34.37,-0.0846483682544
34.375,-0.0113260742801
34.38,0.0415742384866
34.385,0.065932987156
34.39,0.065932987156
34.395,0.0373914230586
34.4,-0.0113260742801
34.405,-0.0846483682544
34.41,-0.194631809216
34.415,-0.332910766308
34.42,-0.491611704609
34.425,-0.666551808688
34.43,-0.82918951445
34.435,-0.975588054433
34.44,-1.08138867997
34.445,-1.13847180816
34.45,-1.14240857562
34.455,-1.08950826286
34.46,-0.992073268179
34.465,-0.841491912768
34.47,-0.67860815904
34.475,-0.499731287498
34.48,-0.341030349198
34.485,-0.202751392106
34.49,-0.100887534034
34.495,-0.027811288026
34.5,0.016969441851
34.505,0.0373914230586
34.51,0.0373914230586
34.515,0.000730276071408
34.52,-0.056106804157
34.525,-0.141731496449
34.53,-0.255651704872
34.535,-0.402050244855
34.54,-0.564687950617
34.545,-0.735691287235
34.55,-0.890209410107
34.555,-1.01224920142
34.56,-1.09369107828
34.565,-1.12223264238
34.57,-1.09787389371
34.575,-1.02036878431
34.58,-0.906448575886
34.585,-0.751930453014
34.59,-0.585109931824
34.595,-0.422472226062
34.6,-0.280010453542
34.605,-0.157970662229
34.61,-0.0723459699366
34.615,-0.0155088897081
34.62,0.016969441851
34.625,0.016969441851
34.63,0.000730276071408
34.635,-0.0440504538055
34.64,-0.113189932352
34.645,-0.218990557885
34.65,-0.349149932088
34.655,-0.499731287498
34.66,-0.674671391578
34.665,-0.841491912768
34.67,-0.98789045275
34.675,-1.09369107828
34.68,-1.15471097394
34.685,-1.16283055683
34.69,-1.11804982695
34.695,-1.02036878431
34.7,-0.878153059755
34.705,-0.711332538565
34.71,-0.528272851596
34.715,-0.361452330406
34.72,-0.214807742457
34.725,-0.100887534034
34.73,-0.0113260742801
34.735,0.0373914230586
34.74,0.0617501717279
34.745,0.065932987156
34.75,0.0415742384866
34.755,-0.00738930681837
34.76,-0.0807116007927
34.765,-0.18626617836
34.77,-0.320608367991
34.775,-0.483492121719
34.78,-0.658432225799
34.785,-0.825252746989
34.79,-0.975588054433
34.795,-1.08138867997
34.8,-1.13847180816
34.805,-1.14240857562
34.81,-1.09787389371
34.815,-1.00019285107
34.82,-0.857731078548
34.825,-0.68672774193
34.83,-0.51178763785
34.835,-0.35308669955
34.84,-0.218990557885
34.845,-0.109007116924
34.85,-0.0359308709158
34.855,0.016969441851
34.86,0.0373914230586
34.865,0.0332086076305
34.87,0.00884985896118
34.875,-0.0440504538055
34.88,-0.129429098131
34.885,-0.239166491127
34.89,-0.377691496185
34.895,-0.544512017375
34.9,-0.715269306027
34.905,-0.873970244327
34.91,-1.00412961853
34.915,-1.08557149539
34.92,-1.11804982695
34.925,-1.09787389371
34.93,-1.03267118263
34.935,-0.918750974204
34.94,-0.764232851332
34.945,-0.601349097604
34.95,-0.434528576414
34.955,-0.292066803893
34.96,-0.174209828008
34.965,-0.0846483682544
34.97,-0.0236284725979
34.975,0.0130326743893
34.98,0.021152257279
34.985,0.00491309149947
34.99,-0.0359308709158
34.995,-0.105070349462
35,-0.202751392106
35.005,-0.332910766308
35.01,-0.483492121719
35.015,-0.650312642909
35.02,-0.825252746989
35.025,-0.967468471543
35.03,-1.08950826286
35.035,-1.15077420648
35.04,-1.16283055683
35.045,-1.12223264238
35.05,-1.03267118263
35.055,-0.894392225535
35.06,-0.727571704345
35.065,-0.540329201947
35.07,-0.373508680757
35.075,-0.227110140775
35.08,-0.109007116924
35.085,-0.0236284725979
35.09,0.0332086076305
35.095,0.065932987156
35.1,0.065932987156
35.105,0.0496938213764
35.11,0.000730276071408
35.115,-0.0723459699366
35.12,-0.174209828008
35.125,-0.304369202211
35.13,-0.463070140511
35.135,-0.638010244591
35.14,-0.804830765781
35.145,-0.951229305763
35.15,-1.06121274672
35.155,-1.13428899273
35.16,-1.15077420648
35.165,-1.1059934766
35.17,-1.01224920142
35.175,-0.873970244327
35.18,-0.711332538565
35.185,-0.536392434486
35.19,-0.369571913296
35.195,-0.231046908237
35.2,-0.121309515242
35.205,-0.0359308709158
35.21,0.0130326743893
35.215,0.0373914230586
35.22,0.0332086076305
35.225,0.0130326743893
35.23,-0.0398676383775
35.235,-0.121309515242
35.24,-0.231046908237
35.245,-0.369571913296
35.25,-0.532209619058
35.255,-0.703212955676
35.26,-0.865850661437
35.265,-0.992073268179
35.27,-1.08557149539
35.275,-1.11411305949
35.28,-1.10181066117
35.285,-1.04079076552
35.29,-0.931053372522
35.295,-0.784408784573
35.3,-0.613651495922
35.305,-0.450767742193
35.31,-0.300432434749
35.315,-0.17814659547
35.32,-0.0888311836825
35.325,-0.027811288026
35.33,0.016969441851
35.335,0.0250890247407
35.34,0.00884985896118
35.345,-0.0317480554877
35.35,-0.0969507665723
35.355,-0.194631809216
35.36,-0.324791183419
35.365,-0.475372538829
35.37,-0.642193060019
35.375,-0.812950348671
35.38,-0.963531704081
35.385,-1.07326909708
35.39,-1.14240857562
35.395,-1.16283055683
35.4,-1.12223264238
35.405,-1.04079076552
35.41,-0.906448575886
35.415,-0.739628054696
35.42,-0.556568367727
35.425,-0.385811079075
35.43,-0.235229723665
35.435,-0.113189932352
35.44,-0.027811288026
35.445,0.0292718401688
35.45,0.0617501717279
35.455,0.0698697546177
35.46,0.0496938213764
35.465,0.00491309149947
35.47,-0.0642263870468
35.475,-0.17002701258
35.48,-0.300432434749
35.485,-0.458887325083
35.49,-0.629890661701
35.495,-0.800647950353
35.5,-0.951229305763
35.505,-1.06933232961
35.51,-1.13428899273
35.515,-1.14659139105
35.52,-1.1059934766
35.525,-1.01224920142
35.53,-0.873970244327
35.535,-0.707149723137
35.54,-0.532209619058
35.545,-0.369571913296
35.55,-0.231046908237
35.555,-0.121309515242
35.56,-0.0440504538055
35.565,0.0130326743893
35.57,0.0373914230586
35.575,0.0373914230586
35.58,0.016969441851
35.585,-0.0359308709158
35.59,-0.113189932352
35.595,-0.222927325347
35.6,-0.357269514978
35.605,-0.51990722074
35.61,-0.690910557358
35.615,-0.85354826312
35.62,-0.98789045275
35.625,-1.0774519125
35.63,-1.11411305949
35.635,-1.1059934766
35.64,-1.04079076552
35.645,-0.931053372522
35.65,-0.788591600001
35.655,-0.617588263383
35.66,-0.450767742193
35.665,-0.304369202211
35.67,-0.18626617836
35.675,-0.0888311836825
35.68,-0.027811288026
35.685,0.016969441851
35.69,0.021152257279
35.695,0.00884985896118
35.7,-0.0317480554877
35.705,-0.0969507665723
35.71,-0.18626617836
35.715,-0.312488785101
35.72,-0.463070140511
35.725,-0.638010244591
35.73,-0.800647950353
35.735,-0.955412121191
35.74,-1.07326909708
35.745,-1.14659139105
35.75,-1.15889378937
35.755,-1.12616940984
35.76,-1.04079076552
35.765,-0.910631391314
35.77,-0.739628054696
35.775,-0.556568367727
35.78,-0.389747846537
35.785,-0.235229723665
35.79,-0.117126699814
35.795,-0.027811288026
35.8,0.0292718401688
35.805,0.0578134042662
35.81,0.065932987156
35.815,0.0536305888381
35.82,0.00491309149947
35.825,-0.0642263870468
35.83,-0.166090245119
35.835,-0.292066803893
35.84,-0.446830974732
35.845,-0.617588263383
35.85,-0.792528367463
35.855,-0.943109722873
35.86,-1.06121274672
35.865,-1.13035222527
35.87,-1.14659139105
35.875,-1.10993024406
35.88,-1.02036878431
35.885,-0.882089827217
35.89,-0.719452121455
35.895,-0.544512017375
35.9,-0.377691496185
35.905,-0.235229723665
35.91,-0.125246282703
35.915,-0.0440504538055
35.92,0.00884985896118
35.925,0.0373914230586
35.93,0.0415742384866
35.935,0.016969441851
35.94,-0.0359308709158
35.945,-0.121309515242
35.95,-0.227110140775
35.955,-0.369571913296
35.96,-0.532209619058
35.965,-0.699030140247
35.97,-0.861667846009
35.975,-0.992073268179
35.98,-1.08557149539
35.985,-1.11804982695
35.99,-1.10181066117
35.995,-1.04079076552
36,-0.931053372522
36.005,-0.784408784573
36.01,-0.617588263383
36.015,-0.450767742193
36.02,-0.304369202211
36.025,-0.17814659547
36.03,-0.0846483682544
36.035,-0.0236284725979
36.04,0.016969441851
36.045,0.021152257279
36.05,0.00491309149947
36.055,-0.0317480554877
36.06,-0.105070349462
36.065,-0.194631809216
36.07,-0.320608367991
36.075,-0.471189723401
36.08,-0.642193060019
36.085,-0.817133164099
36.09,-0.963531704081
36.095,-1.0774519125
36.1,-1.14240857562
36.105,-1.16283055683
36.11,-1.12616940984
36.115,-1.04079076552
36.12,-0.906448575886
36.125,-0.739628054696
36.13,-0.556568367727
36.135,-0.381628263647
36.14,-0.235229723665
36.145,-0.117126699814
36.15,-0.027811288026
36.155,0.0292718401688
36.16,0.0617501717279
36.165,0.0698697546177
36.17,0.0496938213764
36.175,0.00491309149947
36.18,-0.0684092024749
36.185,-0.166090245119
36.19,-0.296249619321
36.195,-0.454950557621
36.2,-0.629890661701
36.205,-0.796711182891
36.21,-0.951229305763
36.215,-1.06514951419
36.22,-1.13428899273
36.225,-1.14659139105
36.23,-1.10993024406
36.235,-1.01643201685
36.24,-0.882089827217
36.245,-0.715269306027
36.25,-0.536392434486
36.255,-0.377691496185
36.26,-0.239166491127
36.265,-0.125246282703
36.27,-0.0440504538055
36.275,0.00884985896118
36.28,0.0332086076305
36.285,0.0373914230586
36.29,0.016969441851
36.295,-0.0359308709158
36.3,-0.113189932352
36.305,-0.214807742457
36.31,-0.35308669955
36.315,-0.515970453278
36.32,-0.690910557358
36.325,-0.849611495658
36.33,-0.983953685289
36.335,-1.0774519125
36.34,-1.11804982695
36.345,-1.1059934766
36.35,-1.04891034841
36.355,-0.939172955412
36.36,-0.796711182891
36.365,-0.629890661701
36.37,-0.463070140511
36.375,-0.316671600529
36.38,-0.190448993788
36.385,-0.0927679511442
36.39,-0.027811288026
36.395,0.00884985896118
36.4,0.0250890247407
36.405,0.00884985896118
36.41,-0.027811288026
36.415,-0.0927679511442
36.42,-0.182329410898
36.425,-0.300432434749
36.43,-0.450767742193
36.435,-0.617588263383
36.44,-0.788591600001
36.445,-0.943109722873
36.45,-1.06121274672
36.455,-1.13847180816
36.46,-1.16283055683
36.465,-1.13428899273
36.47,-1.0570299313
36.475,-0.931053372522
36.48,-0.764232851332
36.485,-0.585109931824
36.49,-0.410169827745
36.495,-0.255651704872
36.5,-0.133611913559
36.505,-0.0398676383775
36.51,0.021152257279
36.515,0.0617501717279
36.52,0.0698697546177
36.525,0.0578134042662
36.53,0.016969441851
36.535,-0.0521700366953
36.54,-0.145668263911
36.545,-0.267708055224
36.55,-0.418289410634
36.555,-0.593229514714
36.56,-0.760050035904
36.565,-0.918750974204
36.57,-1.04079076552
36.575,-1.11804982695
36.58,-1.14659139105
36.585,-1.11411305949
36.59,-1.03685399806
36.595,-0.910631391314
36.6,-0.747747637586
36.605,-0.572807533506
36.61,-0.405987012316
36.615,-0.259588472334
36.62,-0.145668263911
36.625,-0.056106804157
36.63,0.00491309149947
36.635,0.0332086076305
36.64,0.0373914230586
36.645,0.021152257279
36.65,-0.027811288026
36.655,-0.100887534034
36.66,-0.198568576678
36.665,-0.332910766308
36.67,-0.491611704609
36.675,-0.658432225799
36.68,-0.825252746989
36.685,-0.963531704081
36.69,-1.0570299313
36.695,-1.11411305949
36.7,-1.11411305949
36.705,-1.06121274672
36.71,-0.963531704081
36.715,-0.825252746989
36.72,-0.66236899326
36.725,-0.491611704609
36.73,-0.341030349198
36.735,-0.210870974995
36.74,-0.109007116924
36.745,-0.0359308709158
36.75,0.00884985896118
36.755,0.0250890247407
36.76,0.016969441851
36.765,-0.0113260742801
36.77,-0.0765287853646
36.775,-0.166090245119
36.78,-0.280010453542
36.785,-0.426408993524
36.79,-0.589292747252
36.795,-0.760050035904
36.8,-0.914568158776
36.805,-1.04497358095
36.81,-1.12616940984
36.815,-1.15889378937
36.82,-1.14240857562
36.825,-1.07326909708
36.83,-0.951229305763
36.835,-0.796711182891
36.84,-0.613651495922
36.845,-0.438711391842
36.85,-0.280010453542
36.855,-0.149851079339
36.86,-0.0521700366953
36.865,0.016969441851
36.87,0.0578134042662
36.875,0.065932987156
36.88,0.0578134042662
36.885,0.021152257279
36.89,-0.0440504538055
36.895,-0.133611913559
36.9,-0.251468889444
36.905,-0.402050244855
36.91,-0.568870766045
36.915,-0.747747637586
36.92,-0.906448575886
36.925,-1.03685399806
36.93,-1.11804982695
36.935,-1.15077420648
36.94,-1.12616940984
36.945,-1.04891034841
36.95,-0.922933789632
36.955,-0.764232851332
36.96,-0.593229514714
36.965,-0.422472226062
36.97,-0.275827638114
36.975,-0.157970662229
36.98,-0.0723459699366
36.985,-0.0032064913903
36.99,0.0292718401688
36.995,0.0373914230586
37,0.0250890247407
37.005,-0.0113260742801
37.01,-0.0807116007927
37.015,-0.174209828008
37.02,-0.300432434749
37.025,-0.454950557621
37.03,-0.625707846273
37.035,-0.792528367463
37.04,-0.939172955412
37.045,-1.04891034841
37.05,-1.1059934766
37.055,-1.11411305949
37.06,-1.07326909708
37.065,-0.983953685289
37.07,-0.849611495658
37.075,-0.699030140247
37.08,-0.524090036168
37.085,-0.373508680757
37.09,-0.235229723665
37.095,-0.129429098131
37.1,-0.0521700366953
37.105,-0.0032064913903
37.11,0.021152257279
37.115,0.021152257279
37.12,-0.00738930681837
37.125,-0.056106804157
37.13,-0.137548681021
37.135,-0.243349306555
37.14,-0.385811079075
37.145,-0.544512017375
37.15,-0.715269306027
37.155,-0.878153059755
37.16,-1.01643201685
37.165,-1.10993024406
37.17,-1.15889378937
37.175,-1.15077420648
37.18,-1.09369107828
37.185,-0.98789045275
37.19,-0.841491912768
37.195,-0.66236899326
37.2,-0.483492121719
37.205,-0.320608367991
37.21,-0.182329410898
37.215,-0.0765287853646
37.22,0.000730276071408
37.225,0.0496938213764
37.23,0.065932987156
37.235,0.065932987156
37.24,0.0373914230586
37.245,-0.0196917051362
37.25,-0.100887534034
37.255,-0.210870974995
37.26,-0.349149932088
37.265,-0.51178763785
37.27,-0.682790974468
37.275,-0.84542868023
37.28,-0.98789045275
37.285,-1.08950826286
37.29,-1.13847180816
37.295,-1.14240857562
37.3,-1.08557149539
37.305,-0.983953685289
37.31,-0.833372329878
37.315,-0.66236899326
37.32,-0.491611704609
37.325,-0.324791183419
37.33,-0.194631809216
37.335,-0.0969507665723
37.34,-0.0236284725979
37.345,0.016969441851
37.35,0.0415742384866
37.355,0.0332086076305
37.36,0.000730276071408
37.365,-0.056106804157
37.37,-0.145668263911
37.375,-0.263771287762
37.38,-0.402050244855
37.385,-0.572807533506
37.39,-0.743810870124
37.395,-0.894392225535
37.4,-1.02036878431
37.405,-1.08950826286
37.41,-1.11411305949
37.415,-1.09369107828
37.42,-1.02036878431
37.425,-0.898328992997
37.43,-0.747747637586
37.435,-0.576990348934
37.44,-0.418289410634
37.445,-0.275827638114
37.45,-0.157970662229
37.455,-0.0684092024749
37.46,-0.0196917051362
37.465,0.016969441851
37.47,0.021152257279
37.475,0.000730276071408
37.48,-0.0398676383775
37.485,-0.113189932352
37.49,-0.218990557885
37.495,-0.349149932088
37.5,-0.50366805496
37.505,-0.674671391578
37.51,-0.84542868023
37.515,-0.983953685289
37.52,-1.09787389371
37.525,-1.15471097394
37.53,-1.16283055683
37.535,-1.11411305949
37.54,-1.02036878431
37.545,-0.878153059755
37.55,-0.707149723137
37.555,-0.524090036168
37.56,-0.357269514978
37.565,-0.210870974995
37.57,-0.0927679511442
37.575,-0.0155088897081
37.58,0.0373914230586
37.585,0.065932987156
37.59,0.065932987156
37.595,0.0455110059484
37.6,-0.0032064913903
37.605,-0.0807116007927
37.61,-0.18626617836
37.615,-0.320608367991
37.62,-0.479309306291
37.625,-0.658432225799
37.63,-0.82106993156
37.635,-0.971651286971
37.64,-1.08138867997
37.645,-1.13847180816
37.65,-1.14240857562
37.655,-1.09369107828
37.66,-0.99601003564
37.665,-0.85354826312
37.67,-0.682790974468
37.675,-0.51178763785
37.68,-0.35308669955
37.685,-0.214807742457
37.69,-0.109007116924
37.695,-0.0317480554877
37.7,0.016969441851
37.705,0.0373914230586
37.71,0.0373914230586
37.715,0.00884985896118
37.72,-0.0440504538055
37.725,-0.129429098131
37.73,-0.239166491127
37.735,-0.377691496185
37.74,-0.540329201947
37.745,-0.707149723137
37.75,-0.873970244327
37.755,-1.00019285107
37.76,-1.08557149539
37.765,-1.11804982695
37.77,-1.10181066117
37.775,-1.03267118263
37.78,-0.918750974204
37.785,-0.764232851332
37.79,-0.605531913032
37.795,-0.438711391842
37.8,-0.292066803893
37.805,-0.174209828008
37.81,-0.0807116007927
37.815,-0.0196917051362
37.82,0.0130326743893
37.825,0.0250890247407
37.83,0.00884985896118
37.835,-0.0359308709158
37.84,-0.100887534034
37.845,-0.194631809216
37.85,-0.324791183419
37.855,-0.475372538829
37.86,-0.646129827481
37.865,-0.817133164099
37.87,-0.959348888653
37.875,-1.0774519125
37.88,-1.14240857562
37.885,-1.16283055683
37.89,-1.12223264238
37.895,-1.03685399806
37.9,-0.906448575886
37.905,-0.731508471807
37.91,-0.556568367727
37.915,-0.381628263647
37.92,-0.235229723665
37.925,-0.113189932352
37.93,-0.027811288026
37.935,0.0332086076305
37.94,0.0617501717279
37.945,0.065932987156
37.95,0.0496938213764
37.955,0.00491309149947
37.96,-0.0684092024749
37.965,-0.166090245119
37.97,-0.296249619321
37.975,-0.450767742193
37.98,-0.621771078811
37.985,-0.792528367463
37.99,-0.943109722873
37.995,-1.06121274672
38,-1.13035222527
38.005,-1.15077420648
38.01,-1.10993024406
38.015,-1.02455159974
38.02,-0.882089827217
38.025,-0.719452121455
38.03,-0.548448784837
38.035,-0.377691496185
38.04,-0.239166491127
38.045,-0.125246282703
38.05,-0.0440504538055
38.055,0.00884985896118
38.06,0.0332086076305
38.065,0.0373914230586
38.07,0.0130326743893
38.075,-0.0398676383775
38.08,-0.117126699814
38.085,-0.222927325347
38.09,-0.365389097868
38.095,-0.524090036168
38.1,-0.694847324819
38.105,-0.85354826312
38.11,-0.98789045275
38.115,-1.0774519125
38.12,-1.11804982695
38.125,-1.1059934766
38.13,-1.04079076552
38.135,-0.934990139984
38.14,-0.792528367463
38.145,-0.625707846273
38.15,-0.458887325083
38.155,-0.308552017639
38.16,-0.18626617836
38.165,-0.0927679511442
38.17,-0.0236284725979
38.175,0.016969441851
38.18,0.021152257279
38.185,0.00491309149947
38.19,-0.027811288026
38.195,-0.0969507665723
38.2,-0.190448993788
38.205,-0.316671600529
38.21,-0.471189723401
38.215,-0.638010244591
38.22,-0.804830765781
38.225,-0.963531704081
38.23,-1.07326909708
38.235,-1.14659139105
38.24,-1.16283055683
38.245,-1.13035222527
38.25,-1.04079076552
38.255,-0.906448575886
38.26,-0.739628054696
38.265,-0.556568367727
38.27,-0.385811079075
38.275,-0.235229723665
38.28,-0.113189932352
38.285,-0.0317480554877
38.29,0.0292718401688
38.295,0.0617501717279
38.3,0.065932987156
38.305,0.0496938213764
38.31,0.00491309149947
38.315,-0.0684092024749
38.32,-0.17002701258
38.325,-0.300432434749
38.33,-0.454950557621
38.335,-0.633827429163
38.34,-0.800647950353
38.345,-0.955412121191
38.35,-1.06933232961
38.355,-1.13428899273
38.36,-1.14240857562
38.365,-1.1059934766
38.37,-1.01224920142
38.375,-0.878153059755
38.38,-0.711332538565
38.385,-0.536392434486
38.39,-0.373508680757
38.395,-0.235229723665
38.4,-0.125246282703
38.405,-0.0398676383775
38.41,0.00884985896118
38.415,0.0373914230586
38.42,0.0373914230586
38.425,0.0130326743893
38.43,-0.0398676383775
38.435,-0.113189932352
38.44,-0.222927325347
38.445,-0.357269514978
38.45,-0.524090036168
38.455,-0.690910557358
38.46,-0.85354826312
38.465,-0.992073268179
38.47,-1.0774519125
38.475,-1.11804982695
38.48,-1.1059934766
38.485,-1.04079076552
38.49,-0.931053372522
38.495,-0.792528367463
38.5,-0.625707846273
38.505,-0.463070140511
38.51,-0.312488785101
38.515,-0.190448993788
38.52,-0.0927679511442
38.525,-0.0317480554877
38.53,0.00491309149947
38.535,0.0250890247407
38.54,0.016969441851
38.545,-0.0236284725979
38.55,-0.0846483682544
38.555,-0.17002701258
38.56,-0.288130036432
38.565,-0.430591808952
38.57,-0.593229514714
38.575,-0.764232851332
38.58,-0.918750974204
38.585,-1.04497358095
38.59,-1.13035222527
38.595,-1.15889378937
38.6,-1.14240857562
38.605,-1.0774519125
38.61,-0.963531704081
38.615,-0.809013581209
38.62,-0.629890661701
38.625,-0.454950557621
38.63,-0.296249619321
38.635,-0.166090245119
38.64,-0.0642263870468
38.645,0.00884985896118
38.65,0.0496938213764
38.655,0.0698697546177
38.66,0.0617501717279
38.665,0.0292718401688
38.67,-0.0236284725979
38.675,-0.105070349462
38.68,-0.218990557885
38.685,-0.357269514978
38.69,-0.51990722074
38.695,-0.694847324819
38.7,-0.85354826312
38.705,-0.992073268179
38.71,-1.09369107828
38.715,-1.14240857562
38.72,-1.13847180816
38.725,-1.08557149539
38.73,-0.979770869861
38.735,-0.833372329878
38.74,-0.66236899326
38.745,-0.491611704609
38.75,-0.332910766308
38.755,-0.198568576678
38.76,-0.0969507665723
38.765,-0.0236284725979
38.77,0.021152257279
38.775,0.0415742384866
38.78,0.0373914230586
38.785,0.00491309149947
38.79,-0.0479872212672
38.795,-0.133611913559
38.8,-0.247532121983
38.805,-0.385811079075
38.81,-0.552631600265
38.815,-0.715269306027
38.82,-0.878153059755
38.825,-1.00412961853
38.83,-1.08557149539
38.835,-1.11804982695
38.84,-1.09787389371
38.845,-1.03685399806
38.85,-0.926870557094
38.855,-0.780472017112
38.86,-0.617588263383
38.865,-0.454950557621
38.87,-0.308552017639
38.875,-0.182329410898
38.88,-0.0927679511442
38.885,-0.0236284725979
38.89,0.00884985896118
38.895,0.021152257279
38.9,0.00884985896118
38.905,-0.027811288026
38.91,-0.0888311836825
38.915,-0.18626617836
38.92,-0.304369202211
38.925,-0.450767742193
38.93,-0.613651495922
38.935,-0.784408784573
38.94,-0.939172955412
38.945,-1.0570299313
38.95,-1.13847180816
38.955,-1.15889378937
38.96,-1.13847180816
38.965,-1.06121274672
38.97,-0.943109722873
38.975,-0.780472017112
38.98,-0.605531913032
38.985,-0.430591808952
38.99,-0.275827638114
38.995,-0.149851079339
39,-0.056106804157
39.005,0.021152257279
39.01,0.0578134042662
39.015,0.0698697546177
39.02,0.0578134042662
39.025,0.021152257279
39.03,-0.0317480554877
39.035,-0.125246282703
39.04,-0.243349306555
39.045,-0.389747846537
39.05,-0.560751183155
39.055,-0.731508471807
39.06,-0.894392225535
39.065,-1.02036878431
39.07,-1.10993024406
39.075,-1.14659139105
39.08,-1.13035222527
39.085,-1.06121274672
39.09,-0.951229305763
39.095,-0.796711182891
39.1,-0.625707846273
39.105,-0.454950557621
39.11,-0.308552017639
39.115,-0.17814659547
39.12,-0.0846483682544
39.125,-0.0155088897081
39.13,0.0250890247407
39.135,0.0373914230586
39.14,0.0292718401688
39.145,-0.0032064913903
39.15,-0.0642263870468
39.155,-0.153787846801
39.16,-0.267708055224
39.165,-0.414352643173
39.17,-0.576990348934
39.175,-0.751930453014
39.18,-0.902511808425
39.185,-1.02455159974
39.19,-1.09787389371
39.195,-1.11804982695
39.2,-1.08950826286
39.205,-1.01224920142
39.21,-0.894392225535
39.215,-0.739628054696
39.22,-0.572807533506
39.225,-0.410169827745
39.23,-0.275827638114
39.235,-0.157970662229
39.24,-0.0723459699366
39.245,-0.0155088897081
39.25,0.016969441851
39.255,0.021152257279
39.26,0.000730276071408
39.265,-0.0440504538055
39.27,-0.109007116924
39.275,-0.210870974995
39.28,-0.33684753377
39.285,-0.491611704609
39.29,-0.654249410371
39.295,-0.825252746989
39.3,-0.971651286971
39.305,-1.08138867997
39.31,-1.14659139105
39.315,-1.16283055683
39.32,-1.12223264238
39.325,-1.03267118263
39.33,-0.894392225535
39.335,-0.731508471807
39.34,-0.548448784837
39.345,-0.381628263647
39.35,-0.227110140775
39.355,-0.113189932352
39.36,-0.0236284725979
39.365,0.0292718401688
39.37,0.0617501717279
39.375,0.065932987156
39.38,0.0496938213764
39.385,0.00491309149947
39.39,-0.0602896195851
39.395,-0.16190742969
39.4,-0.288130036432
39.405,-0.438711391842
39.41,-0.613651495922
39.415,-0.780472017112
39.42,-0.931053372522
39.425,-1.04891034841
39.43,-1.12223264238
39.435,-1.14240857562
39.44,-1.11804982695
39.445,-1.03267118263
39.45,-0.902511808425
39.455,-0.743810870124
39.46,-0.572807533506
39.465,-0.402050244855
39.47,-0.259588472334
39.475,-0.141731496449
39.48,-0.0602896195851
39.485,0.000730276071408
39.49,0.0332086076305
39.495,0.0415742384866
39.5,0.0250890247407
39.505,-0.0236284725979
39.51,-0.0888311836825
39.515,-0.190448993788
39.52,-0.316671600529
39.525,-0.467006907973
39.53,-0.633827429163
39.535,-0.804830765781
39.54,-0.947292538302
39.545,-1.05309316384
39.55,-1.10993024406
39.555,-1.11804982695
39.56,-1.07326909708
39.565,-0.983953685289
39.57,-0.85354826312
39.575,-0.694847324819
39.58,-0.528272851596
39.585,-0.377691496185
39.59,-0.243349306555
39.595,-0.129429098131
39.6,-0.056106804157
39.605,-0.0032064913903
39.61,0.021152257279
39.615,0.016969441851
39.62,-0.0032064913903
39.625,-0.0521700366953
39.63,-0.129429098131
39.635,-0.239166491127
39.64,-0.373508680757
39.645,-0.528272851596
39.65,-0.699030140247
39.655,-0.870033476866
39.66,-1.00831243396
39.665,-1.10181066117
39.67,-1.15889378937
39.675,-1.15889378937
39.68,-1.10993024406
39.685,-1.00412961853
39.69,-0.857731078548
39.695,-0.690910557358
39.7,-0.51178763785
39.705,-0.349149932088
39.71,-0.206688159567
39.715,-0.0927679511442
39.72,-0.0113260742801
39.725,0.0415742384866
39.73,0.065932987156
39.735,0.0698697546177
39.74,0.0496938213764
39.745,0.000730276071408
39.75,-0.0765287853646
39.755,-0.182329410898
39.76,-0.312488785101
39.765,-0.471189723401
39.77,-0.646129827481
39.775,-0.809013581209
39.78,-0.959348888653
39.785,-1.07326909708
39.79,-1.13035222527
39.795,-1.14659139105
39.8,-1.10181066117
39.805,-1.00831243396
39.81,-0.870033476866
39.815,-0.703212955676
39.82,-0.532209619058
39.825,-0.373508680757
39.83,-0.231046908237
39.835,-0.125246282703
39.84,-0.0440504538055
39.845,0.00491309149947
39.85,0.0373914230586
39.855,0.0373914230586
39.86,0.016969441851
39.865,-0.027811288026
39.87,-0.105070349462
39.875,-0.206688159567
39.88,-0.34496711666
39.885,-0.50366805496
39.89,-0.674671391578
39.895,-0.841491912768
39.9,-0.971651286971
39.905,-1.06514951419
39.91,-1.10993024406
39.915,-1.1059934766
39.92,-1.05309316384
39.925,-0.947292538302
39.93,-0.812950348671
39.935,-0.650312642909
39.94,-0.483492121719
39.945,-0.32872795088
39.95,-0.202751392106
39.955,-0.105070349462
39.96,-0.0359308709158
39.965,0.000730276071408
39.97,0.021152257279
39.975,0.016969441851
39.98,-0.0196917051362
39.985,-0.0807116007927
39.99,-0.166090245119
39.995,-0.280010453542
40,-0.422472226062
40.005,-0.589292747252
40.01,-0.756113268442
40.015,-0.918750974204
40.02,-1.04497358095
40.025,-1.12616940984
40.03,-1.16283055683
40.035,-1.14240857562
40.04,-1.07326909708
40.045,-0.955412121191
40.05,-0.796711182891
40.055,-0.617588263383
40.06,-0.442648159304
40.065,-0.283947221003
40.07,-0.153787846801
40.075,-0.0521700366953
40.08,0.016969441851
40.085,0.0536305888381
40.09,0.0698697546177
40.095,0.0578134042662
40.1,0.0292718401688
40.105,-0.0359308709158
40.11,-0.121309515242
40.115,-0.235229723665
40.12,-0.381628263647
40.125,-0.548448784837
40.13,-0.719452121455
40.135,-0.878153059755
40.14,-1.00831243396
40.145,-1.10181066117
40.15,-1.14240857562
40.155,-1.13035222527
40.16,-1.06514951419
40.165,-0.951229305763
40.17,-0.796711182891
40.175,-0.621771078811
40.18,-0.454950557621
40.185,-0.300432434749
40.19,-0.174209828008
40.195,-0.0765287853646
40.2,-0.0113260742801
40.205,0.0292718401688
40.21,0.0415742384866
40.215,0.0292718401688
40.22,-0.00738930681837
40.225,-0.0684092024749
40.23,-0.16190742969
40.235,-0.283947221003
40.24,-0.438711391842
40.245,-0.605531913032
40.25,-0.772352434222
40.255,-0.918750974204
40.26,-1.03685399806
40.265,-1.10181066117
40.27,-1.11804982695
40.275,-1.08557149539
40.28,-1.00019285107
40.285,-0.882089827217
40.29,-0.723388888917
40.295,-0.556568367727
40.3,-0.402050244855
40.305,-0.259588472334
40.31,-0.141731496449
40.315,-0.0642263870468
40.32,-0.00738930681837
40.325,0.016969441851
40.33,0.021152257279
40.335,0.000730276071408
40.34,-0.0479872212672
40.345,-0.121309515242
40.35,-0.227110140775
40.355,-0.361452330406
40.36,-0.524090036168
40.365,-0.68672774193
40.37,-0.85354826312
40.375,-0.99601003564
40.38,-1.09787389371
40.385,-1.15471097394
40.39,-1.15471097394
40.395,-1.10993024406
40.4,-1.00831243396
40.405,-0.865850661437
40.41,-0.694847324819
40.415,-0.515970453278
40.42,-0.34496711666
40.425,-0.206688159567
40.43,-0.0927679511442
40.435,-0.00738930681837
40.44,0.0415742384866
40.445,0.065932987156
40.45,0.065932987156
40.455,0.0415742384866
40.46,-0.0113260742801
40.465,-0.0846483682544
40.47,-0.190448993788
40.475,-0.324791183419
40.48,-0.487428889181
40.485,-0.66236899326
40.49,-0.82918951445
40.495,-0.975588054433
40.5,-1.08138867997
40.505,-1.13428899273
40.51,-1.13847180816
